SpectraSuite Data File
++++++++++++++++++++++++++++++++++++
Date: Fri Jul 12 17:30:12 ART 2024
User: Javier
Dark Spectrum Present: Yes
Reference Spectrum Present: No
Number of Sampled Component Spectra: 1
Spectrometers: ADUD7991
Integration Time (usec): 90000 (ADUD7991)
Spectra Averaged: 1 (ADUD7991)
Boxcar Smoothing: 0 (ADUD7991)
Correct for Electrical Dark: No (ADUD7991)
Strobe/Lamp Enabled: No (ADUD7991)
Correct for Detector Non-linearity: No (ADUD7991)
Correct for Stray Light: No (ADUD7991)
Number of Pixels in Processed Spectrum: 2048
>>>>>Begin Processed Spectral Data<<<<<
338.97	0.00
339.33	5.00
339.70	-4.00
340.06	4.00
340.42	-2.00
340.79	0.00
341.15	-2.00
341.52	1.00
341.88	-1.00
342.24	1.00
342.61	0.00
342.97	4.00
343.33	5.00
343.70	5.00
344.06	5.00
344.43	-4.00
344.79	3.00
345.15	-3.00
345.52	-5.00
345.88	1.00
346.24	-1.00
346.61	0.00
346.97	-4.00
347.33	-1.00
347.70	0.00
348.06	0.00
348.42	3.00
348.79	-3.00
349.15	-7.00
349.51	1.00
349.88	9.00
350.24	0.00
350.60	-9.00
350.97	-6.00
351.33	1.00
351.69	-2.00
352.05	1.00
352.42	-2.00
352.78	3.00
353.14	-2.00
353.51	6.00
353.87	2.00
354.23	3.00
354.60	-5.00
354.96	1.00
355.32	3.00
355.68	-7.00
356.05	-6.00
356.41	4.00
356.77	3.00
357.13	3.00
357.50	10.00
357.86	3.00
358.22	-1.00
358.58	-1.00
358.95	8.00
359.31	2.00
359.67	7.00
360.03	-1.00
360.40	-4.00
360.76	-5.00
361.12	2.00
361.48	2.00
361.85	4.00
362.21	5.00
362.57	6.00
362.93	-6.00
363.29	3.00
363.66	4.00
364.02	6.00
364.38	8.00
364.74	-5.00
365.10	-1.00
365.47	0.00
365.83	5.00
366.19	2.00
366.55	2.00
366.91	0.00
367.28	5.00
367.64	5.00
368.00	6.00
368.36	8.00
368.72	1.00
369.08	-3.00
369.45	6.00
369.81	6.00
370.17	2.00
370.53	-2.00
370.89	4.00
371.25	10.00
371.62	-2.00
371.98	-2.00
372.34	-1.00
372.70	3.00
373.06	2.00
373.42	8.00
373.78	1.00
374.14	7.00
374.51	4.00
374.87	9.00
375.23	4.00
375.59	9.00
375.95	-1.00
376.31	1.00
376.67	0.00
377.03	5.00
377.39	0.00
377.76	0.00
378.12	3.00
378.48	-1.00
378.84	4.00
379.20	0.00
379.56	-6.00
379.92	3.00
380.28	8.00
380.64	6.00
381.00	-2.00
381.36	2.00
381.72	-3.00
382.08	6.00
382.45	1.00
382.81	4.00
383.17	-1.00
383.53	8.00
383.89	3.00
384.25	-5.00
384.61	2.00
384.97	1.00
385.33	6.00
385.69	4.00
386.05	1.00
386.41	-1.00
386.77	-1.00
387.13	2.00
387.49	1.00
387.85	1.00
388.21	7.00
388.57	4.00
388.93	3.00
389.29	3.00
389.65	3.00
390.01	4.00
390.37	3.00
390.73	1.00
391.09	5.00
391.45	7.00
391.81	0.00
392.17	8.00
392.53	8.00
392.89	1.00
393.25	5.00
393.61	-11.00
393.97	2.00
394.33	3.00
394.69	8.00
395.05	-6.00
395.41	-1.00
395.77	8.00
396.12	3.00
396.48	-4.00
396.84	2.00
397.20	4.00
397.56	-4.00
397.92	8.00
398.28	6.00
398.64	-4.00
399.00	3.00
399.36	1.00
399.72	13.00
400.08	-4.00
400.44	-1.00
400.79	-2.00
401.15	5.00
401.51	6.00
401.87	1.00
402.23	9.00
402.59	1.00
402.95	7.00
403.31	5.00
403.67	1.00
404.02	0.00
404.38	4.00
404.74	3.00
405.10	6.00
405.46	7.00
405.82	5.00
406.18	10.00
406.53	1.00
406.89	6.00
407.25	5.00
407.61	-2.00
407.97	7.00
408.33	6.00
408.69	4.00
409.04	13.00
409.40	8.00
409.76	11.00
410.12	16.00
410.48	6.00
410.83	-1.00
411.19	10.00
411.55	8.00
411.91	7.00
412.27	6.00
412.63	10.00
412.98	7.00
413.34	13.00
413.70	2.00
414.06	1.00
414.41	13.00
414.77	14.00
415.13	8.00
415.49	4.00
415.85	5.00
416.20	9.00
416.56	12.00
416.92	7.00
417.28	11.00
417.63	12.00
417.99	8.00
418.35	11.00
418.71	9.00
419.06	9.00
419.42	3.00
419.78	19.00
420.14	15.00
420.49	11.00
420.85	17.00
421.21	16.00
421.57	14.00
421.92	19.00
422.28	11.00
422.64	19.00
422.99	18.00
423.35	19.00
423.71	21.00
424.06	8.00
424.42	14.00
424.78	16.00
425.14	15.00
425.49	11.00
425.85	22.00
426.21	16.00
426.56	15.00
426.92	10.00
427.28	19.00
427.63	19.00
427.99	16.00
428.35	19.00
428.70	19.00
429.06	18.00
429.42	20.00
429.77	23.00
430.13	19.00
430.49	23.00
430.84	17.00
431.20	28.00
431.55	36.00
431.91	26.00
432.27	19.00
432.62	25.00
432.98	30.00
433.34	17.00
433.69	24.00
434.05	22.00
434.40	28.00
434.76	27.00
435.12	21.00
435.47	23.00
435.83	29.00
436.18	26.00
436.54	20.00
436.90	27.00
437.25	32.00
437.61	27.00
437.96	26.00
438.32	28.00
438.67	24.00
439.03	25.00
439.39	33.00
439.74	28.00
440.10	31.00
440.45	27.00
440.81	38.00
441.16	34.00
441.52	28.00
441.87	31.00
442.23	30.00
442.59	39.00
442.94	35.00
443.30	29.00
443.65	35.00
444.01	30.00
444.36	33.00
444.72	39.00
445.07	34.00
445.43	43.00
445.78	29.00
446.14	33.00
446.49	35.00
446.85	36.00
447.20	39.00
447.56	33.00
447.91	37.00
448.27	26.00
448.62	46.00
448.98	37.00
449.33	38.00
449.69	40.00
450.04	44.00
450.39	35.00
450.75	52.00
451.10	34.00
451.46	45.00
451.81	40.00
452.17	44.00
452.52	45.00
452.88	48.00
453.23	44.00
453.58	48.00
453.94	50.00
454.29	56.00
454.65	43.00
455.00	56.00
455.36	42.00
455.71	55.00
456.06	46.00
456.42	45.00
456.77	56.00
457.13	52.00
457.48	60.00
457.83	48.00
458.19	57.00
458.54	52.00
458.90	45.00
459.25	53.00
459.60	55.00
459.96	53.00
460.31	59.00
460.66	53.00
461.02	52.00
461.37	51.00
461.73	54.00
462.08	58.00
462.43	57.00
462.79	60.00
463.14	55.00
463.49	49.00
463.85	55.00
464.20	61.00
464.55	60.00
464.91	62.00
465.26	64.00
465.61	68.00
465.97	62.00
466.32	56.00
466.67	58.00
467.03	62.00
467.38	61.00
467.73	55.00
468.08	63.00
468.44	63.00
468.79	66.00
469.14	56.00
469.50	57.00
469.85	69.00
470.20	72.00
470.55	64.00
470.91	71.00
471.26	76.00
471.61	70.00
471.97	73.00
472.32	59.00
472.67	76.00
473.02	78.00
473.38	79.00
473.73	77.00
474.08	71.00
474.43	86.00
474.78	79.00
475.14	77.00
475.49	84.00
475.84	80.00
476.19	89.00
476.55	86.00
476.90	87.00
477.25	86.00
477.60	90.00
477.95	86.00
478.31	94.00
478.66	94.00
479.01	89.00
479.36	103.00
479.71	100.00
480.07	95.00
480.42	90.00
480.77	100.00
481.12	98.00
481.47	94.00
481.82	101.00
482.18	97.00
482.53	97.00
482.88	100.00
483.23	112.00
483.58	104.00
483.93	100.00
484.29	113.00
484.64	116.00
484.99	118.00
485.34	105.00
485.69	110.00
486.04	120.00
486.39	119.00
486.74	126.00
487.10	122.00
487.45	120.00
487.80	119.00
488.15	112.00
488.50	121.00
488.85	121.00
489.20	131.00
489.55	134.00
489.90	122.00
490.26	135.00
490.61	126.00
490.96	130.00
491.31	131.00
491.66	130.00
492.01	141.00
492.36	132.00
492.71	128.00
493.06	133.00
493.41	133.00
493.76	137.00
494.11	130.00
494.46	141.00
494.81	149.00
495.16	136.00
495.51	144.00
495.86	143.00
496.21	140.00
496.56	151.00
496.91	151.00
497.27	156.00
497.62	151.00
497.97	148.00
498.32	142.00
498.67	148.00
499.02	153.00
499.37	141.00
499.72	152.00
500.07	161.00
500.42	151.00
500.77	149.00
501.11	165.00
501.46	153.00
501.81	146.00
502.16	162.00
502.51	158.00
502.86	164.00
503.21	155.00
503.56	171.00
503.91	170.00
504.26	167.00
504.61	165.00
504.96	159.00
505.31	169.00
505.66	171.00
506.01	166.00
506.36	163.00
506.71	166.00
507.06	168.00
507.41	169.00
507.75	179.00
508.10	175.00
508.45	177.00
508.80	169.00
509.15	174.00
509.50	177.00
509.85	181.00
510.20	176.00
510.55	171.00
510.90	190.00
511.24	179.00
511.59	186.00
511.94	187.00
512.29	184.00
512.64	183.00
512.99	179.00
513.34	183.00
513.68	179.00
514.03	185.00
514.38	185.00
514.73	199.00
515.08	193.00
515.43	192.00
515.77	193.00
516.12	192.00
516.47	197.00
516.82	197.00
517.17	202.00
517.52	200.00
517.86	210.00
518.21	204.00
518.56	206.00
518.91	203.00
519.26	203.00
519.60	199.00
519.95	205.00
520.30	204.00
520.65	219.00
521.00	211.00
521.34	204.00
521.69	207.00
522.04	215.00
522.39	215.00
522.73	203.00
523.08	214.00
523.43	207.00
523.78	215.00
524.12	212.00
524.47	211.00
524.82	219.00
525.17	211.00
525.51	211.00
525.86	224.00
526.21	215.00
526.56	221.00
526.90	225.00
527.25	211.00
527.60	220.00
527.94	220.00
528.29	222.00
528.64	205.00
528.99	223.00
529.33	235.00
529.68	228.00
530.03	231.00
530.37	229.00
530.72	229.00
531.07	227.00
531.41	237.00
531.76	233.00
532.11	230.00
532.45	238.00
532.80	228.00
533.15	232.00
533.49	225.00
533.84	232.00
534.19	234.00
534.53	236.00
534.88	230.00
535.23	237.00
535.57	238.00
535.92	245.00
536.26	241.00
536.61	247.00
536.96	238.00
537.30	240.00
537.65	246.00
537.99	235.00
538.34	246.00
538.69	239.00
539.03	253.00
539.38	250.00
539.72	251.00
540.07	244.00
540.42	244.00
540.76	245.00
541.11	253.00
541.45	251.00
541.80	250.00
542.14	246.00
542.49	262.00
542.84	255.00
543.18	243.00
543.53	240.00
543.87	258.00
544.22	262.00
544.56	259.00
544.91	252.00
545.25	258.00
545.60	254.00
545.94	254.00
546.29	252.00
546.63	263.00
546.98	255.00
547.32	262.00
547.67	262.00
548.01	261.00
548.36	254.00
548.70	259.00
549.05	268.00
549.39	274.00
549.74	266.00
550.08	267.00
550.43	267.00
550.77	270.00
551.12	269.00
551.46	271.00
551.81	269.00
552.15	272.00
552.50	275.00
552.84	276.00
553.18	273.00
553.53	287.00
553.87	284.00
554.22	275.00
554.56	271.00
554.91	267.00
555.25	273.00
555.59	287.00
555.94	276.00
556.28	282.00
556.63	282.00
556.97	277.00
557.32	276.00
557.66	274.00
558.00	284.00
558.35	274.00
558.69	286.00
559.03	282.00
559.38	286.00
559.72	290.00
560.07	282.00
560.41	282.00
560.75	280.00
561.10	275.00
561.44	291.00
561.78	305.00
562.13	289.00
562.47	291.00
562.81	291.00
563.16	297.00
563.50	299.00
563.84	298.00
564.19	297.00
564.53	287.00
564.87	297.00
565.22	291.00
565.56	286.00
565.90	303.00
566.25	304.00
566.59	300.00
566.93	314.00
567.28	299.00
567.62	308.00
567.96	311.00
568.30	305.00
568.65	313.00
568.99	314.00
569.33	312.00
569.68	313.00
570.02	315.00
570.36	304.00
570.70	313.00
571.05	309.00
571.39	302.00
571.73	306.00
572.07	312.00
572.42	308.00
572.76	313.00
573.10	310.00
573.44	318.00
573.78	316.00
574.13	317.00
574.47	322.00
574.81	326.00
575.15	303.00
575.49	315.00
575.84	319.00
576.18	316.00
576.52	309.00
576.86	311.00
577.20	334.00
577.55	303.00
577.89	315.00
578.23	314.00
578.57	309.00
578.91	296.00
579.25	299.00
579.60	302.00
579.94	309.00
580.28	312.00
580.62	309.00
580.96	309.00
581.30	315.00
581.65	315.00
581.99	308.00
582.33	310.00
582.67	314.00
583.01	323.00
583.35	327.00
583.69	333.00
584.03	325.00
584.37	327.00
584.72	338.00
585.06	330.00
585.40	338.00
585.74	319.00
586.08	331.00
586.42	332.00
586.76	315.00
587.10	319.00
587.44	326.00
587.78	334.00
588.12	321.00
588.46	322.00
588.80	332.00
589.15	322.00
589.49	326.00
589.83	324.00
590.17	322.00
590.51	340.00
590.85	330.00
591.19	341.00
591.53	328.00
591.87	334.00
592.21	325.00
592.55	335.00
592.89	341.00
593.23	329.00
593.57	322.00
593.91	325.00
594.25	340.00
594.59	340.00
594.93	334.00
595.27	339.00
595.61	331.00
595.95	329.00
596.29	333.00
596.63	352.00
596.97	340.00
597.31	335.00
597.65	338.00
597.99	345.00
598.32	330.00
598.66	339.00
599.00	349.00
599.34	345.00
599.68	346.00
600.02	353.00
600.36	345.00
600.70	334.00
601.04	341.00
601.38	335.00
601.72	342.00
602.06	347.00
602.40	341.00
602.73	346.00
603.07	334.00
603.41	331.00
603.75	340.00
604.09	329.00
604.43	346.00
604.77	343.00
605.11	336.00
605.45	345.00
605.78	334.00
606.12	347.00
606.46	350.00
606.80	348.00
607.14	359.00
607.48	347.00
607.81	336.00
608.15	342.00
608.49	344.00
608.83	347.00
609.17	342.00
609.51	342.00
609.84	360.00
610.18	359.00
610.52	351.00
610.86	344.00
611.20	360.00
611.53	337.00
611.87	349.00
612.21	359.00
612.55	363.00
612.89	358.00
613.22	344.00
613.56	348.00
613.90	351.00
614.24	346.00
614.57	357.00
614.91	352.00
615.25	361.00
615.59	341.00
615.92	341.00
616.26	352.00
616.60	357.00
616.94	351.00
617.27	367.00
617.61	363.00
617.95	353.00
618.29	352.00
618.62	375.00
618.96	348.00
619.30	361.00
619.63	362.00
619.97	351.00
620.31	350.00
620.64	357.00
620.98	365.00
621.32	362.00
621.66	366.00
621.99	360.00
622.33	354.00
622.67	341.00
623.00	359.00
623.34	362.00
623.68	360.00
624.01	380.00
624.35	366.00
624.68	372.00
625.02	367.00
625.36	362.00
625.69	359.00
626.03	362.00
626.37	355.00
626.70	355.00
627.04	356.00
627.37	371.00
627.71	349.00
628.05	347.00
628.38	353.00
628.72	359.00
629.05	350.00
629.39	370.00
629.73	373.00
630.06	364.00
630.40	374.00
630.73	364.00
631.07	361.00
631.41	354.00
631.74	359.00
632.08	364.00
632.41	368.00
632.75	361.00
633.08	361.00
633.42	357.00
633.75	357.00
634.09	366.00
634.42	364.00
634.76	367.00
635.09	363.00
635.43	359.00
635.76	375.00
636.10	353.00
636.43	364.00
636.77	356.00
637.10	362.00
637.44	350.00
637.77	357.00
638.11	373.00
638.44	363.00
638.78	365.00
639.11	366.00
639.45	370.00
639.78	362.00
640.12	364.00
640.45	361.00
640.79	365.00
641.12	358.00
641.46	359.00
641.79	365.00
642.12	362.00
642.46	360.00
642.79	351.00
643.13	357.00
643.46	356.00
643.80	360.00
644.13	363.00
644.46	353.00
644.80	365.00
645.13	357.00
645.47	351.00
645.80	354.00
646.13	366.00
646.47	371.00
646.80	374.00
647.13	371.00
647.47	360.00
647.80	350.00
648.14	347.00
648.47	359.00
648.80	352.00
649.14	363.00
649.47	362.00
649.80	352.00
650.14	364.00
650.47	349.00
650.80	347.00
651.14	356.00
651.47	350.00
651.80	358.00
652.14	351.00
652.47	370.00
652.80	353.00
653.14	361.00
653.47	365.00
653.80	345.00
654.13	348.00
654.47	356.00
654.80	362.00
655.13	366.00
655.47	356.00
655.80	346.00
656.13	359.00
656.46	352.00
656.80	350.00
657.13	356.00
657.46	354.00
657.79	362.00
658.13	337.00
658.46	346.00
658.79	351.00
659.12	352.00
659.45	348.00
659.79	354.00
660.12	351.00
660.45	364.00
660.78	353.00
661.12	353.00
661.45	349.00
661.78	349.00
662.11	348.00
662.44	349.00
662.77	346.00
663.11	352.00
663.44	343.00
663.77	341.00
664.10	342.00
664.43	355.00
664.77	330.00
665.10	336.00
665.43	349.00
665.76	323.00
666.09	339.00
666.42	343.00
666.75	337.00
667.08	339.00
667.42	348.00
667.75	341.00
668.08	342.00
668.41	349.00
668.74	345.00
669.07	342.00
669.40	346.00
669.73	334.00
670.06	353.00
670.40	345.00
670.73	331.00
671.06	340.00
671.39	353.00
671.72	336.00
672.05	337.00
672.38	345.00
672.71	340.00
673.04	335.00
673.37	330.00
673.70	348.00
674.03	334.00
674.36	331.00
674.69	343.00
675.02	335.00
675.35	334.00
675.68	343.00
676.01	346.00
676.34	340.00
676.67	341.00
677.00	343.00
677.33	343.00
677.66	354.00
677.99	347.00
678.32	340.00
678.65	341.00
678.98	339.00
679.31	337.00
679.64	353.00
679.97	332.00
680.30	347.00
680.63	343.00
680.96	328.00
681.29	331.00
681.62	337.00
681.95	334.00
682.28	348.00
682.61	336.00
682.94	338.00
683.27	336.00
683.60	339.00
683.93	330.00
684.25	342.00
684.58	343.00
684.91	330.00
685.24	337.00
685.57	331.00
685.90	328.00
686.23	311.00
686.56	339.00
686.89	349.00
687.21	342.00
687.54	320.00
687.87	331.00
688.20	323.00
688.53	333.00
688.86	347.00
689.19	337.00
689.51	338.00
689.84	328.00
690.17	338.00
690.50	335.00
690.83	341.00
691.16	343.00
691.48	329.00
691.81	335.00
692.14	347.00
692.47	340.00
692.80	331.00
693.12	341.00
693.45	323.00
693.78	331.00
694.11	324.00
694.44	330.00
694.76	328.00
695.09	331.00
695.42	322.00
695.75	323.00
696.07	326.00
696.40	331.00
696.73	319.00
697.06	331.00
697.38	312.00
697.71	316.00
698.04	324.00
698.37	314.00
698.69	328.00
699.02	333.00
699.35	324.00
699.67	316.00
700.00	330.00
700.33	318.00
700.66	323.00
700.98	308.00
701.31	321.00
701.64	317.00
701.96	307.00
702.29	314.00
702.62	315.00
702.94	318.00
703.27	327.00
703.60	310.00
703.92	313.00
704.25	314.00
704.58	314.00
704.90	319.00
705.23	302.00
705.56	313.00
705.88	303.00
706.21	307.00
706.53	321.00
706.86	316.00
707.19	309.00
707.51	302.00
707.84	317.00
708.16	304.00
708.49	299.00
708.82	306.00
709.14	298.00
709.47	312.00
709.79	292.00
710.12	312.00
710.45	304.00
710.77	295.00
711.10	290.00
711.42	305.00
711.75	289.00
712.07	288.00
712.40	309.00
712.72	294.00
713.05	307.00
713.37	283.00
713.70	300.00
714.03	295.00
714.35	307.00
714.68	298.00
715.00	286.00
715.33	285.00
715.65	282.00
715.98	277.00
716.30	283.00
716.63	294.00
716.95	273.00
717.28	279.00
717.60	277.00
717.92	281.00
718.25	283.00
718.57	267.00
718.90	285.00
719.22	274.00
719.55	270.00
719.87	264.00
720.20	273.00
720.52	273.00
720.84	272.00
721.17	267.00
721.49	267.00
721.82	267.00
722.14	268.00
722.47	259.00
722.79	266.00
723.11	262.00
723.44	266.00
723.76	258.00
724.09	265.00
724.41	267.00
724.73	259.00
725.06	263.00
725.38	256.00
725.70	263.00
726.03	260.00
726.35	263.00
726.67	247.00
727.00	263.00
727.32	251.00
727.65	245.00
727.97	261.00
728.29	247.00
728.61	255.00
728.94	250.00
729.26	247.00
729.58	240.00
729.91	244.00
730.23	247.00
730.55	247.00
730.88	258.00
731.20	257.00
731.52	256.00
731.84	249.00
732.17	259.00
732.49	252.00
732.81	245.00
733.14	246.00
733.46	251.00
733.78	257.00
734.10	259.00
734.43	253.00
734.75	248.00
735.07	249.00
735.39	245.00
735.72	254.00
736.04	258.00
736.36	260.00
736.68	256.00
737.00	251.00
737.33	253.00
737.65	249.00
737.97	260.00
738.29	253.00
738.61	252.00
738.94	259.00
739.26	260.00
739.58	264.00
739.90	262.00
740.22	262.00
740.54	259.00
740.87	258.00
741.19	262.00
741.51	248.00
741.83	251.00
742.15	255.00
742.47	247.00
742.79	260.00
743.12	255.00
743.44	257.00
743.76	255.00
744.08	260.00
744.40	263.00
744.72	269.00
745.04	258.00
745.36	264.00
745.68	275.00
746.00	264.00
746.33	269.00
746.65	260.00
746.97	258.00
747.29	266.00
747.61	259.00
747.93	258.00
748.25	261.00
748.57	276.00
748.89	258.00
749.21	280.00
749.53	279.00
749.85	264.00
750.17	274.00
750.49	268.00
750.81	292.00
751.13	282.00
751.45	279.00
751.77	283.00
752.09	283.00
752.41	278.00
752.73	271.00
753.05	271.00
753.37	287.00
753.69	281.00
754.01	290.00
754.33	294.00
754.65	302.00
754.97	289.00
755.29	294.00
755.61	295.00
755.93	295.00
756.25	304.00
756.57	301.00
756.89	305.00
757.21	297.00
757.53	304.00
757.84	302.00
758.16	306.00
758.48	305.00
758.80	315.00
759.12	329.00
759.44	313.00
759.76	325.00
760.08	319.00
760.40	329.00
760.71	334.00
761.03	326.00
761.35	324.00
761.67	335.00
761.99	349.00
762.31	350.00
762.63	348.00
762.94	345.00
763.26	351.00
763.58	350.00
763.90	354.00
764.22	354.00
764.54	368.00
764.85	355.00
765.17	373.00
765.49	373.00
765.81	366.00
766.13	368.00
766.44	377.00
766.76	373.00
767.08	388.00
767.40	384.00
767.72	404.00
768.03	400.00
768.35	386.00
768.67	401.00
768.99	412.00
769.30	416.00
769.62	410.00
769.94	416.00
770.26	426.00
770.57	434.00
770.89	441.00
771.21	431.00
771.53	443.00
771.84	451.00
772.16	447.00
772.48	449.00
772.79	463.00
773.11	470.00
773.43	484.00
773.75	455.00
774.06	497.00
774.38	474.00
774.70	478.00
775.01	492.00
775.33	489.00
775.65	507.00
775.96	497.00
776.28	506.00
776.59	513.00
776.91	514.00
777.23	524.00
777.54	527.00
777.86	526.00
778.18	544.00
778.49	540.00
778.81	549.00
779.13	545.00
779.44	558.00
779.76	565.00
780.07	564.00
780.39	581.00
780.71	604.00
781.02	590.00
781.34	584.00
781.65	612.00
781.97	595.00
782.28	622.00
782.60	616.00
782.91	623.00
783.23	630.00
783.55	655.00
783.86	656.00
784.18	645.00
784.49	655.00
784.81	682.00
785.12	679.00
785.44	680.00
785.75	678.00
786.07	685.00
786.38	708.00
786.70	708.00
787.01	721.00
787.33	733.00
787.64	740.00
787.96	752.00
788.27	759.00
788.59	772.00
788.90	778.00
789.22	794.00
789.53	795.00
789.85	800.00
790.16	802.00
790.47	783.00
790.79	809.00
791.10	833.00
791.42	842.00
791.73	840.00
792.05	861.00
792.36	863.00
