SpectraSuite Data File
++++++++++++++++++++++++++++++++++++
Date: Fri Jul 12 17:09:27 ART 2024
User: Javier
Dark Spectrum Present: Yes
Reference Spectrum Present: No
Number of Sampled Component Spectra: 1
Spectrometers: ADUD7991
Integration Time (usec): 8000 (ADUD7991)
Spectra Averaged: 1 (ADUD7991)
Boxcar Smoothing: 0 (ADUD7991)
Correct for Electrical Dark: No (ADUD7991)
Strobe/Lamp Enabled: No (ADUD7991)
Correct for Detector Non-linearity: No (ADUD7991)
Correct for Stray Light: No (ADUD7991)
Number of Pixels in Processed Spectrum: 2048
>>>>>Begin Processed Spectral Data<<<<<
338.97	0.00
339.33	6.00
339.70	-2.00
340.06	3.00
340.42	6.00
340.79	-4.00
341.15	0.00
341.52	0.00
341.88	1.00
342.24	4.00
342.61	-6.00
342.97	0.00
343.33	0.00
343.70	1.00
344.06	2.00
344.43	-3.00
344.79	-3.00
345.15	-3.00
345.52	-5.00
345.88	-6.00
346.24	3.00
346.61	7.00
346.97	-4.00
347.33	-1.00
347.70	-5.00
348.06	-4.00
348.42	-1.00
348.79	3.00
349.15	2.00
349.51	6.00
349.88	4.00
350.24	-1.00
350.60	-1.00
350.97	4.00
351.33	4.00
351.69	-4.00
352.05	2.00
352.42	4.00
352.78	5.00
353.14	-3.00
353.51	-5.00
353.87	0.00
354.23	2.00
354.60	2.00
354.96	-1.00
355.32	7.00
355.68	1.00
356.05	4.00
356.41	4.00
356.77	-5.00
357.13	4.00
357.50	-5.00
357.86	5.00
358.22	-2.00
358.58	3.00
358.95	-4.00
359.31	-4.00
359.67	-5.00
360.03	-4.00
360.40	3.00
360.76	-3.00
361.12	1.00
361.48	-5.00
361.85	2.00
362.21	-2.00
362.57	6.00
362.93	0.00
363.29	2.00
363.66	8.00
364.02	0.00
364.38	-1.00
364.74	2.00
365.10	-3.00
365.47	-5.00
365.83	0.00
366.19	-1.00
366.55	0.00
366.91	4.00
367.28	4.00
367.64	2.00
368.00	3.00
368.36	-5.00
368.72	0.00
369.08	-1.00
369.45	-7.00
369.81	3.00
370.17	2.00
370.53	1.00
370.89	3.00
371.25	-3.00
371.62	8.00
371.98	1.00
372.34	2.00
372.70	0.00
373.06	6.00
373.42	0.00
373.78	5.00
374.14	6.00
374.51	-4.00
374.87	3.00
375.23	5.00
375.59	-1.00
375.95	2.00
376.31	0.00
376.67	-1.00
377.03	0.00
377.39	-4.00
377.76	-1.00
378.12	-2.00
378.48	1.00
378.84	6.00
379.20	-4.00
379.56	-7.00
379.92	7.00
380.28	-5.00
380.64	-1.00
381.00	-9.00
381.36	-4.00
381.72	0.00
382.08	-4.00
382.45	6.00
382.81	0.00
383.17	5.00
383.53	-5.00
383.89	0.00
384.25	0.00
384.61	-2.00
384.97	3.00
385.33	1.00
385.69	-6.00
386.05	0.00
386.41	0.00
386.77	4.00
387.13	4.00
387.49	4.00
387.85	1.00
388.21	1.00
388.57	-1.00
388.93	3.00
389.29	5.00
389.65	0.00
390.01	-3.00
390.37	-5.00
390.73	1.00
391.09	0.00
391.45	6.00
391.81	-7.00
392.17	-1.00
392.53	6.00
392.89	6.00
393.25	2.00
393.61	-3.00
393.97	0.00
394.33	-1.00
394.69	-4.00
395.05	0.00
395.41	2.00
395.77	6.00
396.12	2.00
396.48	6.00
396.84	2.00
397.20	6.00
397.56	8.00
397.92	2.00
398.28	4.00
398.64	0.00
399.00	4.00
399.36	5.00
399.72	3.00
400.08	1.00
400.44	4.00
400.79	-1.00
401.15	2.00
401.51	2.00
401.87	2.00
402.23	1.00
402.59	-3.00
402.95	1.00
403.31	4.00
403.67	4.00
404.02	-2.00
404.38	7.00
404.74	7.00
405.10	1.00
405.46	2.00
405.82	16.00
406.18	5.00
406.53	8.00
406.89	11.00
407.25	8.00
407.61	11.00
407.97	11.00
408.33	10.00
408.69	6.00
409.04	5.00
409.40	11.00
409.76	10.00
410.12	5.00
410.48	7.00
410.83	6.00
411.19	8.00
411.55	8.00
411.91	4.00
412.27	11.00
412.63	14.00
412.98	7.00
413.34	7.00
413.70	11.00
414.06	2.00
414.41	8.00
414.77	13.00
415.13	14.00
415.49	3.00
415.85	16.00
416.20	8.00
416.56	3.00
416.92	16.00
417.28	17.00
417.63	16.00
417.99	18.00
418.35	13.00
418.71	19.00
419.06	11.00
419.42	23.00
419.78	20.00
420.14	12.00
420.49	18.00
420.85	13.00
421.21	18.00
421.57	19.00
421.92	19.00
422.28	11.00
422.64	21.00
422.99	21.00
423.35	22.00
423.71	16.00
424.06	14.00
424.42	22.00
424.78	20.00
425.14	16.00
425.49	22.00
425.85	18.00
426.21	24.00
426.56	23.00
426.92	21.00
427.28	17.00
427.63	21.00
427.99	27.00
428.35	28.00
428.70	24.00
429.06	22.00
429.42	28.00
429.77	19.00
430.13	25.00
430.49	19.00
430.84	33.00
431.20	22.00
431.55	14.00
431.91	26.00
432.27	34.00
432.62	30.00
432.98	19.00
433.34	35.00
433.69	27.00
434.05	29.00
434.40	29.00
434.76	23.00
435.12	24.00
435.47	28.00
435.83	28.00
436.18	26.00
436.54	30.00
436.90	32.00
437.25	42.00
437.61	33.00
437.96	25.00
438.32	37.00
438.67	40.00
439.03	37.00
439.39	35.00
439.74	39.00
440.10	36.00
440.45	37.00
440.81	34.00
441.16	28.00
441.52	45.00
441.87	39.00
442.23	38.00
442.59	34.00
442.94	33.00
443.30	44.00
443.65	38.00
444.01	49.00
444.36	40.00
444.72	39.00
445.07	44.00
445.43	43.00
445.78	44.00
446.14	49.00
446.49	41.00
446.85	49.00
447.20	46.00
447.56	50.00
447.91	46.00
448.27	41.00
448.62	50.00
448.98	45.00
449.33	44.00
449.69	52.00
450.04	50.00
450.39	47.00
450.75	47.00
451.10	49.00
451.46	51.00
451.81	53.00
452.17	53.00
452.52	60.00
452.88	53.00
453.23	50.00
453.58	50.00
453.94	56.00
454.29	55.00
454.65	51.00
455.00	60.00
455.36	53.00
455.71	64.00
456.06	54.00
456.42	59.00
456.77	51.00
457.13	63.00
457.48	61.00
457.83	64.00
458.19	65.00
458.54	61.00
458.90	50.00
459.25	59.00
459.60	59.00
459.96	63.00
460.31	68.00
460.66	64.00
461.02	72.00
461.37	62.00
461.73	65.00
462.08	63.00
462.43	57.00
462.79	60.00
463.14	60.00
463.49	67.00
463.85	64.00
464.20	68.00
464.55	71.00
464.91	70.00
465.26	76.00
465.61	78.00
465.97	73.00
466.32	70.00
466.67	71.00
467.03	83.00
467.38	73.00
467.73	77.00
468.08	65.00
468.44	88.00
468.79	78.00
469.14	75.00
469.50	80.00
469.85	81.00
470.20	90.00
470.55	84.00
470.91	86.00
471.26	88.00
471.61	86.00
471.97	91.00
472.32	86.00
472.67	84.00
473.02	89.00
473.38	87.00
473.73	94.00
474.08	89.00
474.43	100.00
474.78	94.00
475.14	100.00
475.49	97.00
475.84	97.00
476.19	95.00
476.55	103.00
476.90	101.00
477.25	109.00
477.60	104.00
477.95	108.00
478.31	112.00
478.66	111.00
479.01	111.00
479.36	111.00
479.71	117.00
480.07	113.00
480.42	119.00
480.77	112.00
481.12	122.00
481.47	130.00
481.82	121.00
482.18	133.00
482.53	129.00
482.88	123.00
483.23	126.00
483.58	127.00
483.93	135.00
484.29	132.00
484.64	134.00
484.99	142.00
485.34	132.00
485.69	136.00
486.04	127.00
486.39	135.00
486.74	139.00
487.10	151.00
487.45	143.00
487.80	147.00
488.15	150.00
488.50	150.00
488.85	149.00
489.20	149.00
489.55	141.00
489.90	148.00
490.26	138.00
490.61	155.00
490.96	156.00
491.31	151.00
491.66	149.00
492.01	154.00
492.36	152.00
492.71	161.00
493.06	168.00
493.41	161.00
493.76	150.00
494.11	150.00
494.46	166.00
494.81	169.00
495.16	177.00
495.51	179.00
495.86	162.00
496.21	170.00
496.56	171.00
496.91	178.00
497.27	174.00
497.62	165.00
497.97	168.00
498.32	177.00
498.67	180.00
499.02	170.00
499.37	173.00
499.72	178.00
500.07	178.00
500.42	184.00
500.77	179.00
501.11	184.00
501.46	185.00
501.81	186.00
502.16	184.00
502.51	188.00
502.86	189.00
503.21	193.00
503.56	201.00
503.91	204.00
504.26	191.00
504.61	190.00
504.96	203.00
505.31	193.00
505.66	198.00
506.01	195.00
506.36	193.00
506.71	191.00
507.06	210.00
507.41	208.00
507.75	201.00
508.10	206.00
508.45	201.00
508.80	212.00
509.15	206.00
509.50	204.00
509.85	212.00
510.20	211.00
510.55	216.00
510.90	217.00
511.24	218.00
511.59	222.00
511.94	232.00
512.29	219.00
512.64	215.00
512.99	212.00
513.34	225.00
513.68	218.00
514.03	213.00
514.38	230.00
514.73	233.00
515.08	220.00
515.43	225.00
515.77	224.00
516.12	236.00
516.47	221.00
516.82	239.00
517.17	231.00
517.52	237.00
517.86	239.00
518.21	239.00
518.56	236.00
518.91	234.00
519.26	233.00
519.60	234.00
519.95	245.00
520.30	238.00
520.65	241.00
521.00	240.00
521.34	241.00
521.69	251.00
522.04	238.00
522.39	245.00
522.73	252.00
523.08	245.00
523.43	253.00
523.78	246.00
524.12	241.00
524.47	242.00
524.82	258.00
525.17	258.00
525.51	246.00
525.86	260.00
526.21	264.00
526.56	256.00
526.90	257.00
527.25	258.00
527.60	261.00
527.94	260.00
528.29	261.00
528.64	265.00
528.99	265.00
529.33	265.00
529.68	269.00
530.03	278.00
530.37	270.00
530.72	267.00
531.07	284.00
531.41	270.00
531.76	272.00
532.11	273.00
532.45	263.00
532.80	267.00
533.15	280.00
533.49	278.00
533.84	284.00
534.19	281.00
534.53	276.00
534.88	281.00
535.23	280.00
535.57	282.00
535.92	280.00
536.26	273.00
536.61	284.00
536.96	290.00
537.30	290.00
537.65	281.00
537.99	293.00
538.34	295.00
538.69	279.00
539.03	290.00
539.38	294.00
539.72	302.00
540.07	295.00
540.42	299.00
540.76	302.00
541.11	296.00
541.45	307.00
541.80	287.00
542.14	313.00
542.49	301.00
542.84	296.00
543.18	304.00
543.53	289.00
543.87	299.00
544.22	298.00
544.56	290.00
544.91	310.00
545.25	316.00
545.60	314.00
545.94	307.00
546.29	305.00
546.63	314.00
546.98	309.00
547.32	306.00
547.67	316.00
548.01	297.00
548.36	317.00
548.70	319.00
549.05	305.00
549.39	316.00
549.74	308.00
550.08	308.00
550.43	314.00
550.77	312.00
551.12	317.00
551.46	324.00
551.81	323.00
552.15	324.00
552.50	325.00
552.84	327.00
553.18	318.00
553.53	321.00
553.87	336.00
554.22	326.00
554.56	312.00
554.91	333.00
555.25	327.00
555.59	331.00
555.94	326.00
556.28	334.00
556.63	336.00
556.97	329.00
557.32	336.00
557.66	328.00
558.00	336.00
558.35	329.00
558.69	319.00
559.03	341.00
559.38	328.00
559.72	342.00
560.07	341.00
560.41	335.00
560.75	341.00
561.10	338.00
561.44	353.00
561.78	341.00
562.13	338.00
562.47	347.00
562.81	347.00
563.16	349.00
563.50	350.00
563.84	351.00
564.19	353.00
564.53	360.00
564.87	352.00
565.22	357.00
565.56	358.00
565.90	357.00
566.25	360.00
566.59	366.00
566.93	352.00
567.28	364.00
567.62	357.00
567.96	364.00
568.30	342.00
568.65	351.00
568.99	353.00
569.33	351.00
569.68	370.00
570.02	372.00
570.36	363.00
570.70	368.00
571.05	357.00
571.39	375.00
571.73	365.00
572.07	368.00
572.42	362.00
572.76	372.00
573.10	369.00
573.44	372.00
573.78	353.00
574.13	371.00
574.47	364.00
574.81	368.00
575.15	374.00
575.49	374.00
575.84	375.00
576.18	384.00
576.52	370.00
576.86	371.00
577.20	374.00
577.55	352.00
577.89	374.00
578.23	365.00
578.57	353.00
578.91	358.00
579.25	357.00
579.60	353.00
579.94	367.00
580.28	368.00
580.62	365.00
580.96	362.00
581.30	357.00
581.65	373.00
581.99	374.00
582.33	389.00
582.67	376.00
583.01	386.00
583.35	401.00
583.69	393.00
584.03	388.00
584.37	378.00
584.72	388.00
585.06	385.00
585.40	400.00
585.74	393.00
586.08	406.00
586.42	378.00
586.76	394.00
587.10	381.00
587.44	393.00
587.78	395.00
588.12	386.00
588.46	391.00
588.80	390.00
589.15	385.00
589.49	401.00
589.83	385.00
590.17	385.00
590.51	395.00
590.85	388.00
591.19	383.00
591.53	392.00
591.87	403.00
592.21	397.00
592.55	384.00
592.89	396.00
593.23	396.00
593.57	394.00
593.91	390.00
594.25	399.00
594.59	402.00
594.93	399.00
595.27	390.00
595.61	405.00
595.95	398.00
596.29	392.00
596.63	408.00
596.97	394.00
597.31	397.00
597.65	396.00
597.99	408.00
598.32	390.00
598.66	396.00
599.00	408.00
599.34	405.00
599.68	394.00
600.02	398.00
600.36	402.00
600.70	398.00
601.04	399.00
601.38	404.00
601.72	400.00
602.06	417.00
602.40	398.00
602.73	395.00
603.07	410.00
603.41	401.00
603.75	405.00
604.09	406.00
604.43	412.00
604.77	403.00
605.11	415.00
605.45	405.00
605.78	400.00
606.12	412.00
606.46	430.00
606.80	413.00
607.14	417.00
607.48	402.00
607.81	422.00
608.15	397.00
608.49	404.00
608.83	422.00
609.17	404.00
609.51	403.00
609.84	415.00
610.18	411.00
610.52	417.00
610.86	420.00
611.20	407.00
611.53	416.00
611.87	423.00
612.21	416.00
612.55	425.00
612.89	418.00
613.22	416.00
613.56	411.00
613.90	427.00
614.24	392.00
614.57	424.00
614.91	428.00
615.25	413.00
615.59	421.00
615.92	421.00
616.26	424.00
616.60	428.00
616.94	417.00
617.27	417.00
617.61	412.00
617.95	419.00
618.29	422.00
618.62	426.00
618.96	416.00
619.30	426.00
619.63	442.00
619.97	435.00
620.31	425.00
620.64	428.00
620.98	433.00
621.32	417.00
621.66	414.00
621.99	430.00
622.33	439.00
622.67	426.00
623.00	419.00
623.34	421.00
623.68	433.00
624.01	444.00
624.35	439.00
624.68	440.00
625.02	427.00
625.36	426.00
625.69	435.00
626.03	434.00
626.37	434.00
626.70	431.00
627.04	424.00
627.37	444.00
627.71	438.00
628.05	433.00
628.38	430.00
628.72	421.00
629.05	436.00
629.39	422.00
629.73	426.00
630.06	431.00
630.40	431.00
630.73	427.00
631.07	434.00
631.41	426.00
631.74	431.00
632.08	436.00
632.41	433.00
632.75	433.00
633.08	441.00
633.42	429.00
633.75	437.00
634.09	429.00
634.42	431.00
634.76	442.00
635.09	429.00
635.43	427.00
635.76	432.00
636.10	423.00
636.43	435.00
636.77	432.00
637.10	422.00
637.44	439.00
637.77	429.00
638.11	434.00
638.44	422.00
638.78	433.00
639.11	422.00
639.45	425.00
639.78	430.00
640.12	432.00
640.45	421.00
640.79	430.00
641.12	435.00
641.46	431.00
641.79	435.00
642.12	412.00
642.46	433.00
642.79	431.00
643.13	434.00
643.46	426.00
643.80	426.00
644.13	431.00
644.46	426.00
644.80	433.00
645.13	418.00
645.47	425.00
645.80	429.00
646.13	409.00
646.47	424.00
646.80	420.00
647.13	431.00
647.47	423.00
647.80	415.00
648.14	427.00
648.47	418.00
648.80	409.00
649.14	424.00
649.47	422.00
649.80	421.00
650.14	418.00
650.47	433.00
650.80	419.00
651.14	421.00
651.47	425.00
651.80	427.00
652.14	421.00
652.47	419.00
652.80	422.00
653.14	420.00
653.47	419.00
653.80	407.00
654.13	426.00
654.47	423.00
654.80	416.00
655.13	426.00
655.47	406.00
655.80	421.00
656.13	421.00
656.46	418.00
656.80	412.00
657.13	419.00
657.46	410.00
657.79	410.00
658.13	420.00
658.46	424.00
658.79	414.00
659.12	418.00
659.45	424.00
659.79	414.00
660.12	411.00
660.45	418.00
660.78	415.00
661.12	420.00
661.45	405.00
661.78	415.00
662.11	419.00
662.44	422.00
662.77	413.00
663.11	407.00
663.44	417.00
663.77	409.00
664.10	412.00
664.43	403.00
664.77	394.00
665.10	402.00
665.43	405.00
665.76	406.00
666.09	403.00
666.42	403.00
666.75	407.00
667.08	411.00
667.42	413.00
667.75	411.00
668.08	410.00
668.41	404.00
668.74	393.00
669.07	393.00
669.40	392.00
669.73	404.00
670.06	404.00
670.40	411.00
670.73	397.00
671.06	397.00
671.39	404.00
671.72	397.00
672.05	397.00
672.38	400.00
672.71	387.00
673.04	405.00
673.37	396.00
673.70	410.00
674.03	396.00
674.36	399.00
674.69	397.00
675.02	400.00
675.35	405.00
675.68	399.00
676.01	395.00
676.34	397.00
676.67	401.00
677.00	402.00
677.33	397.00
677.66	403.00
677.99	392.00
678.32	396.00
678.65	395.00
678.98	397.00
679.31	409.00
679.64	393.00
679.97	400.00
680.30	403.00
680.63	400.00
680.96	395.00
681.29	393.00
681.62	395.00
681.95	396.00
682.28	397.00
682.61	393.00
682.94	390.00
683.27	383.00
683.60	387.00
683.93	375.00
684.25	392.00
684.58	389.00
684.91	374.00
685.24	385.00
685.57	381.00
685.90	390.00
686.23	389.00
686.56	383.00
686.89	391.00
687.21	383.00
687.54	402.00
687.87	386.00
688.20	389.00
688.53	388.00
688.86	386.00
689.19	394.00
689.51	403.00
689.84	384.00
690.17	379.00
690.50	383.00
690.83	388.00
691.16	392.00
691.48	382.00
691.81	389.00
692.14	384.00
692.47	387.00
692.80	397.00
693.12	380.00
693.45	383.00
693.78	392.00
694.11	391.00
694.44	373.00
694.76	388.00
695.09	391.00
695.42	393.00
695.75	381.00
696.07	380.00
696.40	382.00
696.73	371.00
697.06	374.00
697.38	388.00
697.71	368.00
698.04	382.00
698.37	383.00
698.69	381.00
699.02	376.00
699.35	369.00
699.67	373.00
700.00	383.00
700.33	370.00
700.66	375.00
700.98	384.00
701.31	373.00
701.64	360.00
701.96	371.00
702.29	375.00
702.62	370.00
702.94	369.00
703.27	355.00
703.60	368.00
703.92	365.00
704.25	372.00
704.58	353.00
704.90	357.00
705.23	361.00
705.56	368.00
705.88	359.00
706.21	359.00
706.53	358.00
706.86	351.00
707.19	348.00
707.51	360.00
707.84	341.00
708.16	355.00
708.49	352.00
708.82	357.00
709.14	350.00
709.47	348.00
709.79	344.00
710.12	355.00
710.45	357.00
710.77	352.00
711.10	343.00
711.42	337.00
711.75	347.00
712.07	340.00
712.40	332.00
712.72	337.00
713.05	324.00
713.37	338.00
713.70	330.00
714.03	338.00
714.35	337.00
714.68	322.00
715.00	333.00
715.33	335.00
715.65	321.00
715.98	325.00
716.30	332.00
716.63	334.00
716.95	319.00
717.28	323.00
717.60	324.00
717.92	323.00
718.25	315.00
718.57	325.00
718.90	310.00
719.22	312.00
719.55	302.00
719.87	302.00
720.20	323.00
720.52	313.00
720.84	310.00
721.17	303.00
721.49	302.00
721.82	305.00
722.14	303.00
722.47	300.00
722.79	298.00
723.11	294.00
723.44	290.00
723.76	289.00
724.09	300.00
724.41	281.00
724.73	299.00
725.06	282.00
725.38	298.00
725.70	288.00
726.03	287.00
726.35	299.00
726.67	287.00
727.00	286.00
727.32	297.00
727.65	288.00
727.97	279.00
728.29	289.00
728.61	281.00
728.94	278.00
729.26	296.00
729.58	282.00
729.91	282.00
730.23	285.00
730.55	279.00
730.88	291.00
731.20	285.00
731.52	287.00
731.84	293.00
732.17	290.00
732.49	282.00
732.81	280.00
733.14	278.00
733.46	280.00
733.78	276.00
734.10	285.00
734.43	281.00
734.75	276.00
735.07	286.00
735.39	282.00
735.72	277.00
736.04	283.00
736.36	285.00
736.68	283.00
737.00	283.00
737.33	286.00
737.65	279.00
737.97	283.00
738.29	283.00
738.61	280.00
738.94	282.00
739.26	276.00
739.58	275.00
739.90	286.00
740.22	280.00
740.54	274.00
740.87	283.00
741.19	278.00
741.51	279.00
741.83	275.00
742.15	275.00
742.47	279.00
742.79	286.00
743.12	274.00
743.44	274.00
743.76	269.00
744.08	279.00
744.40	277.00
744.72	279.00
745.04	272.00
745.36	284.00
745.68	288.00
746.00	282.00
746.33	290.00
746.65	276.00
746.97	273.00
747.29	283.00
747.61	286.00
747.93	288.00
748.25	282.00
748.57	280.00
748.89	279.00
749.21	281.00
749.53	274.00
749.85	275.00
750.17	278.00
750.49	270.00
750.81	282.00
751.13	286.00
751.45	279.00
751.77	291.00
752.09	268.00
752.41	288.00
752.73	278.00
753.05	278.00
753.37	280.00
753.69	274.00
754.01	293.00
754.33	288.00
754.65	289.00
754.97	289.00
755.29	289.00
755.61	292.00
755.93	295.00
756.25	292.00
756.57	294.00
756.89	290.00
757.21	297.00
757.53	302.00
757.84	300.00
758.16	295.00
758.48	294.00
758.80	309.00
759.12	306.00
759.44	303.00
759.76	300.00
760.08	299.00
760.40	303.00
760.71	306.00
761.03	311.00
761.35	314.00
761.67	311.00
761.99	308.00
762.31	297.00
762.63	309.00
762.94	307.00
763.26	314.00
763.58	306.00
763.90	307.00
764.22	317.00
764.54	321.00
764.85	322.00
765.17	314.00
765.49	319.00
765.81	310.00
766.13	327.00
766.44	333.00
766.76	333.00
767.08	335.00
767.40	333.00
767.72	334.00
768.03	327.00
768.35	345.00
768.67	335.00
768.99	343.00
769.30	358.00
769.62	340.00
769.94	342.00
770.26	340.00
770.57	344.00
770.89	349.00
771.21	355.00
771.53	347.00
771.84	357.00
772.16	363.00
772.48	359.00
772.79	354.00
773.11	369.00
773.43	371.00
773.75	367.00
774.06	379.00
774.38	363.00
774.70	368.00
775.01	384.00
775.33	375.00
775.65	385.00
775.96	377.00
776.28	380.00
776.59	374.00
776.91	390.00
777.23	406.00
777.54	398.00
777.86	382.00
778.18	388.00
778.49	404.00
778.81	419.00
779.13	415.00
779.44	411.00
779.76	421.00
780.07	423.00
780.39	430.00
780.71	425.00
781.02	432.00
781.34	433.00
781.65	438.00
781.97	423.00
782.28	430.00
782.60	438.00
782.91	441.00
783.23	431.00
783.55	449.00
783.86	439.00
784.18	456.00
784.49	449.00
784.81	463.00
785.12	465.00
785.44	459.00
785.75	458.00
786.07	471.00
786.38	471.00
786.70	464.00
787.01	471.00
787.33	476.00
787.64	485.00
787.96	491.00
788.27	489.00
788.59	493.00
788.90	489.00
789.22	504.00
789.53	513.00
789.85	516.00
790.16	524.00
790.47	520.00
790.79	527.00
791.10	538.00
791.42	541.00
791.73	526.00
