SpectraSuite Data File
++++++++++++++++++++++++++++++++++++
Date: Fri Jul 12 14:02:53 ART 2024
User: Javier
Dark Spectrum Present: Yes
Reference Spectrum Present: No
Number of Sampled Component Spectra: 1
Spectrometers: ADUD7991
Integration Time (usec): 30000 (ADUD7991)
Spectra Averaged: 1 (ADUD7991)
Boxcar Smoothing: 0 (ADUD7991)
Correct for Electrical Dark: No (ADUD7991)
Strobe/Lamp Enabled: No (ADUD7991)
Correct for Detector Non-linearity: No (ADUD7991)
Correct for Stray Light: No (ADUD7991)
Number of Pixels in Processed Spectrum: 2048
>>>>>Begin Processed Spectral Data<<<<<
338.97	0.00
339.33	-6.00
339.70	0.00
340.06	-1.00
340.42	-4.00
340.79	-6.00
341.15	4.00
341.52	-4.00
341.88	-6.00
342.24	-4.00
342.61	-2.00
342.97	-1.00
343.33	-3.00
343.70	-2.00
344.06	-1.00
344.43	-6.00
344.79	-3.00
345.15	0.00
345.52	0.00
345.88	-3.00
346.24	-2.00
346.61	-2.00
346.97	0.00
347.33	10.00
347.70	-1.00
348.06	5.00
348.42	-3.00
348.79	-2.00
349.15	-1.00
349.51	0.00
349.88	2.00
350.24	4.00
350.60	2.00
350.97	0.00
351.33	0.00
351.69	4.00
352.05	-6.00
352.42	3.00
352.78	6.00
353.14	9.00
353.51	1.00
353.87	-9.00
354.23	0.00
354.60	2.00
354.96	-3.00
355.32	-3.00
355.68	9.00
356.05	9.00
356.41	1.00
356.77	2.00
357.13	1.00
357.50	3.00
357.86	-1.00
358.22	-3.00
358.58	-3.00
358.95	-5.00
359.31	0.00
359.67	-2.00
360.03	1.00
360.40	-8.00
360.76	2.00
361.12	-5.00
361.48	1.00
361.85	-3.00
362.21	-2.00
362.57	-2.00
362.93	-2.00
363.29	7.00
363.66	5.00
364.02	-3.00
364.38	0.00
364.74	-6.00
365.10	-1.00
365.47	2.00
365.83	7.00
366.19	0.00
366.55	6.00
366.91	3.00
367.28	-1.00
367.64	-2.00
368.00	2.00
368.36	9.00
368.72	-2.00
369.08	2.00
369.45	0.00
369.81	-7.00
370.17	-6.00
370.53	4.00
370.89	3.00
371.25	-5.00
371.62	4.00
371.98	-1.00
372.34	-4.00
372.70	-1.00
373.06	1.00
373.42	2.00
373.78	0.00
374.14	2.00
374.51	2.00
374.87	3.00
375.23	3.00
375.59	5.00
375.95	7.00
376.31	-7.00
376.67	1.00
377.03	3.00
377.39	-6.00
377.76	4.00
378.12	2.00
378.48	-2.00
378.84	-4.00
379.20	6.00
379.56	3.00
379.92	3.00
380.28	0.00
380.64	4.00
381.00	5.00
381.36	-2.00
381.72	10.00
382.08	1.00
382.45	9.00
382.81	3.00
383.17	4.00
383.53	0.00
383.89	0.00
384.25	7.00
384.61	7.00
384.97	15.00
385.33	2.00
385.69	0.00
386.05	6.00
386.41	3.00
386.77	4.00
387.13	1.00
387.49	-1.00
387.85	8.00
388.21	-3.00
388.57	1.00
388.93	10.00
389.29	0.00
389.65	6.00
390.01	10.00
390.37	14.00
390.73	9.00
391.09	5.00
391.45	12.00
391.81	-1.00
392.17	11.00
392.53	20.00
392.89	8.00
393.25	16.00
393.61	10.00
393.97	13.00
394.33	10.00
394.69	12.00
395.05	23.00
395.41	20.00
395.77	18.00
396.12	18.00
396.48	23.00
396.84	22.00
397.20	26.00
397.56	27.00
397.92	29.00
398.28	25.00
398.64	29.00
399.00	32.00
399.36	39.00
399.72	46.00
400.08	48.00
400.44	40.00
400.79	48.00
401.15	45.00
401.51	42.00
401.87	55.00
402.23	49.00
402.59	49.00
402.95	56.00
403.31	59.00
403.67	67.00
404.02	68.00
404.38	66.00
404.74	68.00
405.10	74.00
405.46	74.00
405.82	77.00
406.18	75.00
406.53	78.00
406.89	79.00
407.25	83.00
407.61	82.00
407.97	92.00
408.33	94.00
408.69	97.00
409.04	95.00
409.40	101.00
409.76	104.00
410.12	107.00
410.48	111.00
410.83	106.00
411.19	117.00
411.55	115.00
411.91	106.00
412.27	121.00
412.63	115.00
412.98	121.00
413.34	139.00
413.70	126.00
414.06	136.00
414.41	133.00
414.77	137.00
415.13	135.00
415.49	137.00
415.85	140.00
416.20	137.00
416.56	140.00
416.92	150.00
417.28	137.00
417.63	153.00
417.99	139.00
418.35	160.00
418.71	164.00
419.06	166.00
419.42	167.00
419.78	164.00
420.14	169.00
420.49	166.00
420.85	174.00
421.21	171.00
421.57	194.00
421.92	168.00
422.28	173.00
422.64	178.00
422.99	190.00
423.35	194.00
423.71	187.00
424.06	193.00
424.42	202.00
424.78	205.00
425.14	193.00
425.49	195.00
425.85	203.00
426.21	207.00
426.56	205.00
426.92	198.00
427.28	209.00
427.63	205.00
427.99	223.00
428.35	224.00
428.70	220.00
429.06	218.00
429.42	222.00
429.77	221.00
430.13	223.00
430.49	223.00
430.84	231.00
431.20	236.00
431.55	238.00
431.91	229.00
432.27	231.00
432.62	233.00
432.98	233.00
433.34	254.00
433.69	246.00
434.05	241.00
434.40	237.00
434.76	249.00
435.12	246.00
435.47	242.00
435.83	257.00
436.18	269.00
436.54	251.00
436.90	256.00
437.25	262.00
437.61	265.00
437.96	270.00
438.32	266.00
438.67	252.00
439.03	283.00
439.39	273.00
439.74	281.00
440.10	272.00
440.45	281.00
440.81	274.00
441.16	273.00
441.52	271.00
441.87	299.00
442.23	290.00
442.59	292.00
442.94	291.00
443.30	280.00
443.65	285.00
444.01	278.00
444.36	296.00
444.72	304.00
445.07	297.00
445.43	290.00
445.78	301.00
446.14	288.00
446.49	295.00
446.85	303.00
447.20	299.00
447.56	309.00
447.91	312.00
448.27	303.00
448.62	328.00
448.98	315.00
449.33	301.00
449.69	320.00
450.04	316.00
450.39	326.00
450.75	324.00
451.10	334.00
451.46	323.00
451.81	323.00
452.17	329.00
452.52	342.00
452.88	341.00
453.23	328.00
453.58	330.00
453.94	336.00
454.29	339.00
454.65	347.00
455.00	345.00
455.36	352.00
455.71	341.00
456.06	343.00
456.42	344.00
456.77	340.00
457.13	375.00
457.48	355.00
457.83	362.00
458.19	369.00
458.54	368.00
458.90	350.00
459.25	383.00
459.60	380.00
459.96	381.00
460.31	377.00
460.66	388.00
461.02	376.00
461.37	376.00
461.73	386.00
462.08	393.00
462.43	380.00
462.79	386.00
463.14	380.00
463.49	393.00
463.85	406.00
464.20	404.00
464.55	416.00
464.91	422.00
465.26	423.00
465.61	436.00
465.97	419.00
466.32	416.00
466.67	431.00
467.03	438.00
467.38	454.00
467.73	466.00
468.08	462.00
468.44	470.00
468.79	467.00
469.14	464.00
469.50	487.00
469.85	487.00
470.20	489.00
470.55	511.00
470.91	483.00
471.26	505.00
471.61	510.00
471.97	515.00
472.32	527.00
472.67	519.00
473.02	546.00
473.38	551.00
473.73	575.00
474.08	548.00
474.43	568.00
474.78	593.00
475.14	586.00
475.49	603.00
475.84	610.00
476.19	610.00
476.55	622.00
476.90	627.00
477.25	631.00
477.60	640.00
477.95	651.00
478.31	682.00
478.66	673.00
479.01	694.00
479.36	713.00
479.71	702.00
480.07	720.00
480.42	730.00
480.77	746.00
481.12	751.00
481.47	765.00
481.82	787.00
482.18	783.00
482.53	802.00
482.88	801.00
483.23	835.00
483.58	835.00
483.93	839.00
484.29	847.00
484.64	863.00
484.99	883.00
485.34	870.00
485.69	893.00
486.04	908.00
486.39	914.00
486.74	931.00
487.10	930.00
487.45	951.00
487.80	964.00
488.15	971.00
488.50	996.00
488.85	985.00
489.20	998.00
489.55	1029.00
489.90	1024.00
490.26	1037.00
490.61	1049.00
490.96	1066.00
491.31	1066.00
491.66	1074.00
492.01	1111.00
492.36	1100.00
492.71	1137.00
493.06	1136.00
493.41	1134.00
493.76	1152.00
494.11	1167.00
494.46	1177.00
494.81	1183.00
495.16	1190.00
495.51	1229.00
495.86	1220.00
496.21	1223.00
496.56	1249.00
496.91	1268.00
497.27	1279.00
497.62	1262.00
497.97	1282.00
498.32	1306.00
498.67	1301.00
499.02	1329.00
499.37	1335.00
499.72	1367.00
500.07	1368.00
500.42	1384.00
500.77	1386.00
501.11	1409.00
501.46	1399.00
501.81	1405.00
502.16	1430.00
502.51	1456.00
502.86	1460.00
503.21	1457.00
503.56	1489.00
503.91	1495.00
504.26	1517.00
504.61	1530.00
504.96	1544.00
505.31	1533.00
505.66	1542.00
506.01	1575.00
506.36	1589.00
506.71	1579.00
507.06	1613.00
507.41	1627.00
507.75	1638.00
508.10	1631.00
508.45	1649.00
508.80	1664.00
509.15	1669.00
509.50	1690.00
509.85	1706.00
510.20	1713.00
510.55	1729.00
510.90	1768.00
511.24	1729.00
511.59	1799.00
511.94	1813.00
512.29	1806.00
512.64	1788.00
512.99	1806.00
513.34	1846.00
513.68	1854.00
514.03	1858.00
514.38	1896.00
514.73	1895.00
515.08	1902.00
515.43	1949.00
515.77	1944.00
516.12	1976.00
516.47	1935.00
516.82	1987.00
517.17	2010.00
517.52	2013.00
517.86	2024.00
518.21	2041.00
518.56	2056.00
518.91	2063.00
519.26	2078.00
519.60	2082.00
519.95	2110.00
520.30	2111.00
520.65	2103.00
521.00	2146.00
521.34	2153.00
521.69	2144.00
522.04	2203.00
522.39	2193.00
522.73	2225.00
523.08	2202.00
523.43	2237.00
523.78	2236.00
524.12	2239.00
524.47	2252.00
524.82	2278.00
525.17	2273.00
525.51	2301.00
525.86	2316.00
526.21	2312.00
526.56	2349.00
526.90	2374.00
527.25	2371.00
527.60	2381.00
527.94	2393.00
528.29	2398.00
528.64	2409.00
528.99	2427.00
529.33	2430.00
529.68	2439.00
530.03	2456.00
530.37	2470.00
530.72	2478.00
531.07	2514.00
531.41	2500.00
531.76	2509.00
532.11	2549.00
532.45	2527.00
532.80	2550.00
533.15	2532.00
533.49	2579.00
533.84	2599.00
534.19	2599.00
534.53	2603.00
534.88	2618.00
535.23	2601.00
535.57	2654.00
535.92	2652.00
536.26	2663.00
536.61	2690.00
536.96	2693.00
537.30	2685.00
537.65	2724.00
537.99	2696.00
538.34	2707.00
538.69	2742.00
539.03	2755.00
539.38	2759.00
539.72	2793.00
540.07	2778.00
540.42	2831.00
540.76	2816.00
541.11	2820.00
541.45	2822.00
541.80	2842.00
542.14	2857.00
542.49	2849.00
542.84	2897.00
543.18	2902.00
543.53	2868.00
543.87	2901.00
544.22	2901.00
544.56	2924.00
544.91	2912.00
545.25	2940.00
545.60	2940.00
545.94	2951.00
546.29	2962.00
546.63	3019.00
546.98	2967.00
547.32	3000.00
547.67	2994.00
548.01	3050.00
548.36	3032.00
548.70	3066.00
549.05	3053.00
549.39	3041.00
549.74	3080.00
550.08	3123.00
550.43	3083.00
550.77	3081.00
551.12	3109.00
551.46	3138.00
551.81	3119.00
552.15	3178.00
552.50	3171.00
552.84	3172.00
553.18	3194.00
553.53	3176.00
553.87	3175.00
554.22	3191.00
554.56	3167.00
554.91	3228.00
555.25	3202.00
555.59	3248.00
555.94	3222.00
556.28	3280.00
556.63	3271.00
556.97	3291.00
557.32	3277.00
557.66	3297.00
558.00	3293.00
558.35	3254.00
558.69	3279.00
559.03	3305.00
559.38	3321.00
559.72	3346.00
560.07	3331.00
560.41	3316.00
560.75	3319.00
561.10	3316.00
561.44	3380.00
561.78	3401.00
562.13	3353.00
562.47	3407.00
562.81	3429.00
563.16	3431.00
563.50	3410.00
563.84	3415.00
564.19	3389.00
564.53	3438.00
564.87	3423.00
565.22	3452.00
565.56	3447.00
565.90	3505.00
566.25	3454.00
566.59	3520.00
566.93	3490.00
567.28	3498.00
567.62	3489.00
567.96	3505.00
568.30	3485.00
568.65	3535.00
568.99	3537.00
569.33	3529.00
569.68	3518.00
570.02	3540.00
570.36	3526.00
570.70	3539.00
571.05	3568.00
571.39	3553.00
571.73	3589.00
572.07	3539.00
572.42	3561.00
572.76	3590.00
573.10	3597.00
573.44	3555.00
573.78	3596.00
574.13	3569.00
574.47	3587.00
574.81	3586.00
575.15	3631.00
575.49	3596.00
575.84	3591.00
576.18	3599.00
576.52	3584.00
576.86	3599.00
577.20	3554.00
577.55	3546.00
577.89	3525.00
578.23	3538.00
578.57	3496.00
578.91	3460.00
579.25	3467.00
579.60	3430.00
579.94	3434.00
580.28	3466.00
580.62	3487.00
580.96	3482.00
581.30	3508.00
581.65	3539.00
581.99	3549.00
582.33	3599.00
582.67	3619.00
583.01	3625.00
583.35	3632.00
583.69	3652.00
584.03	3654.00
584.37	3703.00
584.72	3654.00
585.06	3679.00
585.40	3700.00
585.74	3691.00
586.08	3664.00
586.42	3651.00
586.76	3725.00
587.10	3678.00
587.44	3685.00
587.78	3664.00
588.12	3679.00
588.46	3663.00
588.80	3648.00
589.15	3696.00
589.49	3676.00
589.83	3630.00
590.17	3694.00
590.51	3662.00
590.85	3639.00
591.19	3674.00
591.53	3651.00
591.87	3668.00
592.21	3645.00
592.55	3660.00
592.89	3674.00
593.23	3643.00
593.57	3665.00
593.91	3632.00
594.25	3630.00
594.59	3656.00
594.93	3624.00
595.27	3632.00
595.61	3636.00
595.95	3630.00
596.29	3658.00
596.63	3669.00
596.97	3643.00
597.31	3654.00
597.65	3624.00
597.99	3673.00
598.32	3633.00
598.66	3618.00
599.00	3650.00
599.34	3659.00
599.68	3592.00
600.02	3643.00
600.36	3665.00
600.70	3571.00
601.04	3616.00
601.38	3625.00
601.72	3661.00
602.06	3671.00
602.40	3647.00
602.73	3631.00
603.07	3647.00
603.41	3608.00
603.75	3649.00
604.09	3626.00
604.43	3641.00
604.77	3593.00
605.11	3644.00
605.45	3603.00
605.78	3611.00
606.12	3630.00
606.46	3610.00
606.80	3587.00
607.14	3611.00
607.48	3621.00
607.81	3589.00
608.15	3593.00
608.49	3602.00
608.83	3627.00
609.17	3612.00
609.51	3583.00
609.84	3643.00
610.18	3601.00
610.52	3578.00
610.86	3604.00
611.20	3606.00
611.53	3541.00
611.87	3578.00
612.21	3564.00
612.55	3573.00
612.89	3606.00
613.22	3552.00
613.56	3539.00
613.90	3551.00
614.24	3550.00
614.57	3556.00
614.91	3535.00
615.25	3562.00
615.59	3554.00
615.92	3555.00
616.26	3565.00
616.60	3548.00
616.94	3526.00
617.27	3536.00
617.61	3536.00
617.95	3549.00
618.29	3499.00
618.62	3528.00
618.96	3564.00
619.30	3555.00
619.63	3529.00
619.97	3505.00
620.31	3477.00
620.64	3526.00
620.98	3495.00
621.32	3468.00
621.66	3449.00
621.99	3501.00
622.33	3489.00
622.67	3459.00
623.00	3452.00
623.34	3437.00
623.68	3451.00
624.01	3488.00
624.35	3487.00
624.68	3467.00
625.02	3443.00
625.36	3442.00
625.69	3441.00
626.03	3456.00
626.37	3440.00
626.70	3423.00
627.04	3442.00
627.37	3442.00
627.71	3402.00
628.05	3416.00
628.38	3400.00
628.72	3407.00
629.05	3379.00
629.39	3384.00
629.73	3390.00
630.06	3384.00
630.40	3353.00
630.73	3331.00
631.07	3369.00
631.41	3338.00
631.74	3341.00
632.08	3348.00
632.41	3339.00
632.75	3332.00
633.08	3313.00
633.42	3290.00
633.75	3315.00
634.09	3269.00
634.42	3248.00
634.76	3291.00
635.09	3253.00
635.43	3267.00
635.76	3250.00
636.10	3284.00
636.43	3224.00
636.77	3262.00
637.10	3253.00
637.44	3194.00
637.77	3202.00
638.11	3203.00
638.44	3215.00
638.78	3180.00
639.11	3190.00
639.45	3167.00
639.78	3139.00
640.12	3151.00
640.45	3156.00
640.79	3159.00
641.12	3132.00
641.46	3140.00
641.79	3130.00
642.12	3109.00
642.46	3140.00
642.79	3105.00
643.13	3094.00
643.46	3078.00
643.80	3090.00
644.13	3065.00
644.46	3028.00
644.80	3023.00
645.13	3021.00
645.47	3010.00
645.80	3006.00
646.13	2991.00
646.47	3006.00
646.80	2976.00
647.13	2992.00
647.47	2955.00
647.80	2949.00
648.14	2945.00
648.47	2948.00
648.80	2928.00
649.14	2922.00
649.47	2918.00
649.80	2894.00
650.14	2909.00
650.47	2893.00
650.80	2897.00
651.14	2855.00
651.47	2875.00
651.80	2873.00
652.14	2862.00
652.47	2832.00
652.80	2827.00
653.14	2813.00
653.47	2837.00
653.80	2821.00
654.13	2792.00
654.47	2793.00
654.80	2784.00
655.13	2793.00
655.47	2758.00
655.80	2760.00
656.13	2769.00
656.46	2733.00
656.80	2713.00
657.13	2716.00
657.46	2722.00
657.79	2708.00
658.13	2699.00
658.46	2686.00
658.79	2684.00
659.12	2658.00
659.45	2656.00
659.79	2625.00
660.12	2663.00
660.45	2647.00
660.78	2594.00
661.12	2617.00
661.45	2607.00
661.78	2607.00
662.11	2569.00
662.44	2580.00
662.77	2578.00
663.11	2561.00
663.44	2557.00
663.77	2512.00
664.10	2519.00
664.43	2551.00
664.77	2491.00
665.10	2506.00
665.43	2474.00
665.76	2474.00
666.09	2478.00
666.42	2463.00
666.75	2466.00
667.08	2463.00
667.42	2457.00
667.75	2435.00
668.08	2417.00
668.41	2429.00
668.74	2428.00
669.07	2385.00
669.40	2378.00
669.73	2403.00
670.06	2392.00
670.40	2388.00
670.73	2387.00
671.06	2361.00
671.39	2377.00
671.72	2320.00
672.05	2358.00
672.38	2322.00
672.71	2298.00
673.04	2316.00
673.37	2314.00
673.70	2294.00
674.03	2287.00
674.36	2254.00
674.69	2296.00
675.02	2268.00
675.35	2237.00
675.68	2276.00
676.01	2261.00
676.34	2208.00
676.67	2229.00
677.00	2217.00
677.33	2217.00
677.66	2230.00
677.99	2213.00
678.32	2216.00
678.65	2206.00
678.98	2166.00
679.31	2188.00
679.64	2158.00
679.97	2168.00
680.30	2147.00
680.63	2126.00
680.96	2130.00
681.29	2128.00
681.62	2113.00
681.95	2116.00
682.28	2106.00
682.61	2098.00
682.94	2096.00
683.27	2089.00
683.60	2071.00
683.93	2068.00
684.25	2041.00
684.58	2068.00
684.91	2056.00
685.24	2048.00
685.57	2036.00
685.90	2048.00
686.23	2011.00
686.56	2013.00
686.89	2024.00
687.21	2001.00
687.54	2014.00
687.87	1998.00
688.20	1979.00
688.53	1980.00
688.86	1956.00
689.19	1959.00
689.51	1971.00
689.84	1953.00
690.17	1958.00
690.50	1921.00
690.83	1971.00
691.16	1929.00
691.48	1900.00
691.81	1889.00
692.14	1901.00
692.47	1902.00
692.80	1859.00
693.12	1877.00
693.45	1873.00
693.78	1877.00
694.11	1857.00
694.44	1829.00
694.76	1887.00
695.09	1856.00
695.42	1827.00
695.75	1826.00
696.07	1820.00
696.40	1804.00
696.73	1813.00
697.06	1787.00
697.38	1789.00
697.71	1770.00
698.04	1770.00
698.37	1751.00
698.69	1775.00
699.02	1750.00
699.35	1763.00
699.67	1747.00
700.00	1757.00
700.33	1706.00
700.66	1719.00
700.98	1685.00
701.31	1689.00
701.64	1700.00
701.96	1698.00
702.29	1697.00
702.62	1668.00
702.94	1661.00
703.27	1670.00
703.60	1647.00
703.92	1631.00
704.25	1639.00
704.58	1621.00
704.90	1616.00
705.23	1622.00
705.56	1591.00
705.88	1607.00
706.21	1594.00
706.53	1597.00
706.86	1568.00
707.19	1544.00
707.51	1560.00
707.84	1556.00
708.16	1527.00
708.49	1557.00
708.82	1541.00
709.14	1525.00
709.47	1528.00
709.79	1526.00
710.12	1506.00
710.45	1492.00
710.77	1476.00
711.10	1474.00
711.42	1478.00
711.75	1460.00
712.07	1476.00
712.40	1446.00
712.72	1462.00
713.05	1435.00
713.37	1403.00
713.70	1417.00
714.03	1432.00
714.35	1407.00
714.68	1411.00
715.00	1400.00
715.33	1393.00
715.65	1369.00
715.98	1361.00
716.30	1358.00
716.63	1365.00
716.95	1328.00
717.28	1328.00
717.60	1311.00
717.92	1300.00
718.25	1326.00
718.57	1293.00
718.90	1288.00
719.22	1262.00
719.55	1263.00
719.87	1249.00
720.20	1260.00
720.52	1254.00
720.84	1212.00
721.17	1223.00
721.49	1223.00
721.82	1200.00
722.14	1179.00
722.47	1186.00
722.79	1186.00
723.11	1187.00
723.44	1156.00
723.76	1182.00
724.09	1155.00
724.41	1147.00
724.73	1142.00
725.06	1142.00
725.38	1142.00
725.70	1130.00
726.03	1140.00
726.35	1131.00
726.67	1131.00
727.00	1134.00
727.32	1118.00
727.65	1097.00
727.97	1079.00
728.29	1090.00
728.61	1093.00
728.94	1101.00
729.26	1095.00
729.58	1079.00
729.91	1088.00
730.23	1087.00
730.55	1060.00
730.88	1061.00
731.20	1090.00
731.52	1065.00
731.84	1058.00
732.17	1060.00
732.49	1058.00
732.81	1057.00
733.14	1068.00
733.46	1059.00
733.78	1040.00
734.10	1048.00
734.43	1032.00
734.75	1036.00
735.07	1043.00
735.39	1031.00
735.72	1035.00
736.04	1006.00
736.36	1025.00
736.68	1031.00
737.00	1020.00
737.33	1023.00
737.65	1014.00
737.97	1018.00
738.29	1012.00
738.61	997.00
738.94	993.00
739.26	999.00
739.58	989.00
739.90	993.00
740.22	998.00
740.54	982.00
740.87	983.00
741.19	957.00
741.51	986.00
741.83	985.00
742.15	970.00
742.47	978.00
742.79	981.00
743.12	973.00
743.44	969.00
743.76	947.00
744.08	973.00
744.40	957.00
744.72	961.00
745.04	947.00
745.36	947.00
745.68	955.00
746.00	926.00
746.33	961.00
746.65	951.00
746.97	936.00
747.29	939.00
747.61	929.00
747.93	939.00
748.25	919.00
748.57	931.00
748.89	939.00
749.21	923.00
749.53	919.00
749.85	929.00
750.17	907.00
750.49	916.00
750.81	921.00
751.13	918.00
751.45	917.00
751.77	924.00
752.09	897.00
752.41	915.00
752.73	907.00
753.05	904.00
753.37	903.00
753.69	919.00
754.01	899.00
754.33	899.00
754.65	906.00
754.97	905.00
755.29	907.00
755.61	899.00
755.93	891.00
756.25	903.00
756.57	901.00
756.89	878.00
757.21	895.00
757.53	891.00
757.84	887.00
758.16	877.00
758.48	885.00
758.80	887.00
759.12	881.00
759.44	899.00
759.76	893.00
760.08	907.00
760.40	884.00
760.71	891.00
761.03	874.00
761.35	869.00
761.67	865.00
761.99	874.00
762.31	876.00
762.63	853.00
762.94	865.00
763.26	862.00
763.58	867.00
763.90	849.00
764.22	866.00
764.54	849.00
764.85	872.00
765.17	863.00
765.49	868.00
765.81	861.00
766.13	834.00
766.44	843.00
766.76	841.00
767.08	858.00
767.40	855.00
767.72	853.00
768.03	861.00
768.35	830.00
768.67	843.00
768.99	833.00
769.30	838.00
769.62	852.00
769.94	830.00
770.26	849.00
770.57	821.00
770.89	818.00
