SpectraSuite Data File
++++++++++++++++++++++++++++++++++++
Date: Fri Jul 12 13:54:43 ART 2024
User: Javier
Dark Spectrum Present: Yes
Reference Spectrum Present: No
Number of Sampled Component Spectra: 1
Spectrometers: ADUD7991
Integration Time (usec): 30000 (ADUD7991)
Spectra Averaged: 1 (ADUD7991)
Boxcar Smoothing: 0 (ADUD7991)
Correct for Electrical Dark: No (ADUD7991)
Strobe/Lamp Enabled: No (ADUD7991)
Correct for Detector Non-linearity: No (ADUD7991)
Correct for Stray Light: No (ADUD7991)
Number of Pixels in Processed Spectrum: 2048
>>>>>Begin Processed Spectral Data<<<<<
338.97	0.00
339.33	-6.00
339.70	2.00
340.06	0.00
340.42	-5.00
340.79	-2.00
341.15	2.00
341.52	1.00
341.88	-7.00
342.24	-6.00
342.61	-4.00
342.97	0.00
343.33	2.00
343.70	-3.00
344.06	-4.00
344.43	-7.00
344.79	2.00
345.15	1.00
345.52	4.00
345.88	-1.00
346.24	0.00
346.61	-3.00
346.97	6.00
347.33	8.00
347.70	-2.00
348.06	11.00
348.42	-2.00
348.79	-4.00
349.15	12.00
349.51	1.00
349.88	1.00
350.24	3.00
350.60	-2.00
350.97	2.00
351.33	1.00
351.69	1.00
352.05	-2.00
352.42	-2.00
352.78	2.00
353.14	4.00
353.51	0.00
353.87	-4.00
354.23	3.00
354.60	2.00
354.96	6.00
355.32	-3.00
355.68	11.00
356.05	4.00
356.41	-1.00
356.77	9.00
357.13	-6.00
357.50	-1.00
357.86	2.00
358.22	7.00
358.58	-6.00
358.95	-5.00
359.31	-2.00
359.67	0.00
360.03	5.00
360.40	0.00
360.76	0.00
361.12	1.00
361.48	4.00
361.85	-14.00
362.21	3.00
362.57	-1.00
362.93	0.00
363.29	3.00
363.66	4.00
364.02	-9.00
364.38	5.00
364.74	-5.00
365.10	-1.00
365.47	-2.00
365.83	6.00
366.19	7.00
366.55	7.00
366.91	0.00
367.28	-6.00
367.64	7.00
368.00	5.00
368.36	8.00
368.72	1.00
369.08	-1.00
369.45	3.00
369.81	-1.00
370.17	-1.00
370.53	3.00
370.89	1.00
371.25	0.00
371.62	1.00
371.98	-3.00
372.34	-2.00
372.70	2.00
373.06	5.00
373.42	1.00
373.78	5.00
374.14	-1.00
374.51	1.00
374.87	-2.00
375.23	6.00
375.59	1.00
375.95	2.00
376.31	-10.00
376.67	5.00
377.03	-8.00
377.39	-8.00
377.76	3.00
378.12	5.00
378.48	-7.00
378.84	-3.00
379.20	4.00
379.56	4.00
379.92	0.00
380.28	0.00
380.64	1.00
381.00	6.00
381.36	3.00
381.72	11.00
382.08	0.00
382.45	8.00
382.81	-2.00
383.17	-1.00
383.53	2.00
383.89	7.00
384.25	2.00
384.61	6.00
384.97	5.00
385.33	4.00
385.69	1.00
386.05	6.00
386.41	6.00
386.77	-4.00
387.13	3.00
387.49	7.00
387.85	6.00
388.21	-4.00
388.57	4.00
388.93	9.00
389.29	1.00
389.65	2.00
390.01	10.00
390.37	12.00
390.73	7.00
391.09	9.00
391.45	15.00
391.81	9.00
392.17	11.00
392.53	14.00
392.89	9.00
393.25	11.00
393.61	7.00
393.97	15.00
394.33	10.00
394.69	19.00
395.05	15.00
395.41	16.00
395.77	16.00
396.12	16.00
396.48	13.00
396.84	18.00
397.20	18.00
397.56	21.00
397.92	30.00
398.28	21.00
398.64	25.00
399.00	31.00
399.36	32.00
399.72	39.00
400.08	38.00
400.44	35.00
400.79	42.00
401.15	39.00
401.51	43.00
401.87	48.00
402.23	48.00
402.59	46.00
402.95	45.00
403.31	62.00
403.67	58.00
404.02	49.00
404.38	62.00
404.74	58.00
405.10	65.00
405.46	68.00
405.82	71.00
406.18	73.00
406.53	71.00
406.89	77.00
407.25	77.00
407.61	73.00
407.97	85.00
408.33	85.00
408.69	87.00
409.04	75.00
409.40	95.00
409.76	94.00
410.12	102.00
410.48	106.00
410.83	98.00
411.19	101.00
411.55	106.00
411.91	107.00
412.27	115.00
412.63	114.00
412.98	121.00
413.34	128.00
413.70	113.00
414.06	137.00
414.41	127.00
414.77	139.00
415.13	130.00
415.49	135.00
415.85	127.00
416.20	133.00
416.56	130.00
416.92	148.00
417.28	142.00
417.63	142.00
417.99	136.00
418.35	149.00
418.71	160.00
419.06	165.00
419.42	163.00
419.78	160.00
420.14	161.00
420.49	168.00
420.85	163.00
421.21	165.00
421.57	185.00
421.92	162.00
422.28	158.00
422.64	195.00
422.99	187.00
423.35	204.00
423.71	192.00
424.06	205.00
424.42	201.00
424.78	202.00
425.14	205.00
425.49	193.00
425.85	209.00
426.21	207.00
426.56	223.00
426.92	210.00
427.28	221.00
427.63	221.00
427.99	223.00
428.35	237.00
428.70	238.00
429.06	218.00
429.42	229.00
429.77	243.00
430.13	246.00
430.49	220.00
430.84	241.00
431.20	250.00
431.55	241.00
431.91	251.00
432.27	245.00
432.62	250.00
432.98	246.00
433.34	264.00
433.69	256.00
434.05	250.00
434.40	245.00
434.76	270.00
435.12	264.00
435.47	251.00
435.83	273.00
436.18	268.00
436.54	276.00
436.90	266.00
437.25	271.00
437.61	266.00
437.96	266.00
438.32	272.00
438.67	270.00
439.03	286.00
439.39	280.00
439.74	287.00
440.10	286.00
440.45	282.00
440.81	291.00
441.16	273.00
441.52	281.00
441.87	301.00
442.23	310.00
442.59	289.00
442.94	291.00
443.30	292.00
443.65	287.00
444.01	290.00
444.36	294.00
444.72	302.00
445.07	297.00
445.43	314.00
445.78	308.00
446.14	290.00
446.49	293.00
446.85	303.00
447.20	295.00
447.56	298.00
447.91	304.00
448.27	307.00
448.62	312.00
448.98	302.00
449.33	297.00
449.69	303.00
450.04	308.00
450.39	312.00
450.75	303.00
451.10	308.00
451.46	304.00
451.81	292.00
452.17	299.00
452.52	309.00
452.88	311.00
453.23	300.00
453.58	298.00
453.94	305.00
454.29	299.00
454.65	300.00
455.00	319.00
455.36	311.00
455.71	299.00
456.06	287.00
456.42	303.00
456.77	299.00
457.13	309.00
457.48	303.00
457.83	314.00
458.19	305.00
458.54	300.00
458.90	284.00
459.25	290.00
459.60	297.00
459.96	305.00
460.31	291.00
460.66	295.00
461.02	289.00
461.37	302.00
461.73	292.00
462.08	296.00
462.43	291.00
462.79	290.00
463.14	284.00
463.49	286.00
463.85	287.00
464.20	292.00
464.55	290.00
464.91	293.00
465.26	294.00
465.61	290.00
465.97	293.00
466.32	275.00
466.67	289.00
467.03	286.00
467.38	291.00
467.73	291.00
468.08	284.00
468.44	292.00
468.79	288.00
469.14	290.00
469.50	283.00
469.85	301.00
470.20	295.00
470.55	303.00
470.91	292.00
471.26	286.00
471.61	292.00
471.97	302.00
472.32	291.00
472.67	300.00
473.02	296.00
473.38	305.00
473.73	307.00
474.08	310.00
474.43	300.00
474.78	309.00
475.14	300.00
475.49	320.00
475.84	327.00
476.19	317.00
476.55	331.00
476.90	326.00
477.25	326.00
477.60	327.00
477.95	336.00
478.31	327.00
478.66	329.00
479.01	330.00
479.36	356.00
479.71	330.00
480.07	334.00
480.42	339.00
480.77	353.00
481.12	363.00
481.47	354.00
481.82	362.00
482.18	363.00
482.53	358.00
482.88	359.00
483.23	376.00
483.58	363.00
483.93	370.00
484.29	382.00
484.64	388.00
484.99	387.00
485.34	388.00
485.69	403.00
486.04	398.00
486.39	389.00
486.74	412.00
487.10	397.00
487.45	407.00
487.80	408.00
488.15	421.00
488.50	417.00
488.85	430.00
489.20	433.00
489.55	445.00
489.90	439.00
490.26	443.00
490.61	441.00
490.96	439.00
491.31	441.00
491.66	460.00
492.01	469.00
492.36	455.00
492.71	481.00
493.06	479.00
493.41	482.00
493.76	495.00
494.11	500.00
494.46	503.00
494.81	501.00
495.16	505.00
495.51	519.00
495.86	517.00
496.21	520.00
496.56	524.00
496.91	539.00
497.27	543.00
497.62	539.00
497.97	557.00
498.32	563.00
498.67	576.00
499.02	565.00
499.37	586.00
499.72	613.00
500.07	585.00
500.42	602.00
500.77	616.00
501.11	609.00
501.46	625.00
501.81	642.00
502.16	641.00
502.51	651.00
502.86	664.00
503.21	660.00
503.56	654.00
503.91	694.00
504.26	687.00
504.61	704.00
504.96	720.00
505.31	704.00
505.66	725.00
506.01	717.00
506.36	724.00
506.71	758.00
507.06	752.00
507.41	763.00
507.75	768.00
508.10	770.00
508.45	775.00
508.80	784.00
509.15	818.00
509.50	807.00
509.85	837.00
510.20	826.00
510.55	828.00
510.90	854.00
511.24	837.00
511.59	890.00
511.94	881.00
512.29	886.00
512.64	884.00
512.99	892.00
513.34	923.00
513.68	912.00
514.03	950.00
514.38	952.00
514.73	951.00
515.08	965.00
515.43	998.00
515.77	994.00
516.12	1025.00
516.47	1022.00
516.82	1025.00
517.17	1043.00
517.52	1035.00
517.86	1057.00
518.21	1081.00
518.56	1078.00
518.91	1098.00
519.26	1093.00
519.60	1115.00
519.95	1137.00
520.30	1145.00
520.65	1157.00
521.00	1145.00
521.34	1155.00
521.69	1164.00
522.04	1204.00
522.39	1205.00
522.73	1204.00
523.08	1215.00
523.43	1254.00
523.78	1239.00
524.12	1255.00
524.47	1269.00
524.82	1291.00
525.17	1302.00
525.51	1316.00
525.86	1314.00
526.21	1332.00
526.56	1338.00
526.90	1363.00
527.25	1337.00
527.60	1367.00
527.94	1376.00
528.29	1396.00
528.64	1387.00
528.99	1417.00
529.33	1430.00
529.68	1423.00
530.03	1464.00
530.37	1451.00
530.72	1464.00
531.07	1448.00
531.41	1502.00
531.76	1479.00
532.11	1504.00
532.45	1518.00
532.80	1500.00
533.15	1550.00
533.49	1546.00
533.84	1572.00
534.19	1578.00
534.53	1585.00
534.88	1607.00
535.23	1612.00
535.57	1625.00
535.92	1634.00
536.26	1624.00
536.61	1665.00
536.96	1655.00
537.30	1692.00
537.65	1674.00
537.99	1659.00
538.34	1698.00
538.69	1706.00
539.03	1714.00
539.38	1730.00
539.72	1754.00
540.07	1745.00
540.42	1775.00
540.76	1759.00
541.11	1789.00
541.45	1794.00
541.80	1827.00
542.14	1814.00
542.49	1832.00
542.84	1841.00
543.18	1859.00
543.53	1843.00
543.87	1898.00
544.22	1879.00
544.56	1919.00
544.91	1877.00
545.25	1922.00
545.60	1941.00
545.94	1951.00
546.29	1935.00
546.63	1961.00
546.98	1955.00
547.32	1973.00
547.67	2000.00
548.01	1991.00
548.36	2001.00
548.70	2020.00
549.05	2023.00
549.39	2026.00
549.74	2036.00
550.08	2074.00
550.43	2050.00
550.77	2059.00
551.12	2097.00
551.46	2098.00
551.81	2092.00
552.15	2115.00
552.50	2134.00
552.84	2153.00
553.18	2151.00
553.53	2152.00
553.87	2159.00
554.22	2178.00
554.56	2174.00
554.91	2197.00
555.25	2199.00
555.59	2189.00
555.94	2210.00
556.28	2216.00
556.63	2202.00
556.97	2251.00
557.32	2243.00
557.66	2278.00
558.00	2274.00
558.35	2263.00
558.69	2266.00
559.03	2296.00
559.38	2303.00
559.72	2334.00
560.07	2339.00
560.41	2324.00
560.75	2336.00
561.10	2324.00
561.44	2350.00
561.78	2370.00
562.13	2367.00
562.47	2404.00
562.81	2402.00
563.16	2383.00
563.50	2405.00
563.84	2382.00
564.19	2422.00
564.53	2420.00
564.87	2425.00
565.22	2460.00
565.56	2455.00
565.90	2481.00
566.25	2487.00
566.59	2473.00
566.93	2488.00
567.28	2467.00
567.62	2462.00
567.96	2525.00
568.30	2498.00
568.65	2511.00
568.99	2538.00
569.33	2538.00
569.68	2514.00
570.02	2553.00
570.36	2547.00
570.70	2564.00
571.05	2574.00
571.39	2587.00
571.73	2565.00
572.07	2588.00
572.42	2600.00
572.76	2610.00
573.10	2598.00
573.44	2600.00
573.78	2612.00
574.13	2627.00
574.47	2630.00
574.81	2612.00
575.15	2633.00
575.49	2636.00
575.84	2621.00
576.18	2644.00
576.52	2616.00
576.86	2665.00
577.20	2640.00
577.55	2599.00
577.89	2610.00
578.23	2593.00
578.57	2566.00
578.91	2557.00
579.25	2579.00
579.60	2530.00
579.94	2551.00
580.28	2553.00
580.62	2576.00
580.96	2605.00
581.30	2625.00
581.65	2618.00
581.99	2625.00
582.33	2682.00
582.67	2696.00
583.01	2752.00
583.35	2758.00
583.69	2744.00
584.03	2732.00
584.37	2789.00
584.72	2755.00
585.06	2751.00
585.40	2798.00
585.74	2737.00
586.08	2782.00
586.42	2757.00
586.76	2821.00
587.10	2790.00
587.44	2802.00
587.78	2779.00
588.12	2790.00
588.46	2822.00
588.80	2769.00
589.15	2807.00
589.49	2789.00
589.83	2786.00
590.17	2801.00
590.51	2794.00
590.85	2766.00
591.19	2812.00
591.53	2805.00
591.87	2816.00
592.21	2792.00
592.55	2823.00
592.89	2838.00
593.23	2839.00
593.57	2812.00
593.91	2826.00
594.25	2820.00
594.59	2803.00
594.93	2785.00
595.27	2815.00
595.61	2808.00
595.95	2834.00
596.29	2808.00
596.63	2856.00
596.97	2829.00
597.31	2831.00
597.65	2800.00
597.99	2837.00
598.32	2820.00
598.66	2833.00
599.00	2831.00
599.34	2841.00
599.68	2819.00
600.02	2819.00
600.36	2847.00
600.70	2826.00
601.04	2819.00
601.38	2850.00
601.72	2844.00
602.06	2843.00
602.40	2860.00
602.73	2836.00
603.07	2827.00
603.41	2843.00
603.75	2851.00
604.09	2853.00
604.43	2851.00
604.77	2814.00
605.11	2888.00
605.45	2820.00
605.78	2858.00
606.12	2893.00
606.46	2842.00
606.80	2832.00
607.14	2842.00
607.48	2847.00
607.81	2834.00
608.15	2849.00
608.49	2816.00
608.83	2860.00
609.17	2844.00
609.51	2814.00
609.84	2866.00
610.18	2825.00
610.52	2859.00
610.86	2860.00
611.20	2869.00
611.53	2815.00
611.87	2824.00
612.21	2839.00
612.55	2864.00
612.89	2854.00
613.22	2865.00
613.56	2799.00
613.90	2832.00
614.24	2842.00
614.57	2868.00
614.91	2819.00
615.25	2846.00
615.59	2867.00
615.92	2830.00
616.26	2830.00
616.60	2841.00
616.94	2850.00
617.27	2843.00
617.61	2848.00
617.95	2847.00
618.29	2832.00
618.62	2848.00
618.96	2825.00
619.30	2806.00
619.63	2817.00
619.97	2819.00
620.31	2784.00
620.64	2800.00
620.98	2824.00
621.32	2818.00
621.66	2814.00
621.99	2820.00
622.33	2804.00
622.67	2804.00
623.00	2785.00
623.34	2809.00
623.68	2803.00
624.01	2843.00
624.35	2824.00
624.68	2815.00
625.02	2786.00
625.36	2801.00
625.69	2792.00
626.03	2805.00
626.37	2789.00
626.70	2776.00
627.04	2782.00
627.37	2796.00
627.71	2757.00
628.05	2813.00
628.38	2777.00
628.72	2764.00
629.05	2749.00
629.39	2762.00
629.73	2757.00
630.06	2772.00
630.40	2740.00
630.73	2739.00
631.07	2727.00
631.41	2718.00
631.74	2701.00
632.08	2710.00
632.41	2723.00
632.75	2699.00
633.08	2680.00
633.42	2701.00
633.75	2715.00
634.09	2695.00
634.42	2671.00
634.76	2675.00
635.09	2707.00
635.43	2674.00
635.76	2669.00
636.10	2661.00
636.43	2687.00
636.77	2670.00
637.10	2661.00
637.44	2635.00
637.77	2643.00
638.11	2660.00
638.44	2630.00
638.78	2595.00
639.11	2600.00
639.45	2587.00
639.78	2592.00
640.12	2598.00
640.45	2607.00
640.79	2608.00
641.12	2569.00
641.46	2571.00
641.79	2567.00
642.12	2570.00
642.46	2571.00
642.79	2536.00
643.13	2557.00
643.46	2531.00
643.80	2561.00
644.13	2536.00
644.46	2521.00
644.80	2499.00
645.13	2504.00
645.47	2483.00
645.80	2505.00
646.13	2460.00
646.47	2449.00
646.80	2479.00
647.13	2456.00
647.47	2455.00
647.80	2409.00
648.14	2462.00
648.47	2455.00
648.80	2407.00
649.14	2416.00
649.47	2417.00
649.80	2388.00
650.14	2407.00
650.47	2376.00
650.80	2393.00
651.14	2350.00
651.47	2391.00
651.80	2357.00
652.14	2366.00
652.47	2341.00
652.80	2347.00
653.14	2346.00
653.47	2328.00
653.80	2310.00
654.13	2316.00
654.47	2319.00
654.80	2299.00
655.13	2296.00
655.47	2276.00
655.80	2287.00
656.13	2295.00
656.46	2290.00
656.80	2263.00
657.13	2248.00
657.46	2245.00
657.79	2260.00
658.13	2229.00
658.46	2218.00
658.79	2208.00
659.12	2200.00
659.45	2176.00
659.79	2167.00
660.12	2177.00
660.45	2186.00
660.78	2148.00
661.12	2154.00
661.45	2150.00
661.78	2117.00
662.11	2111.00
662.44	2115.00
662.77	2114.00
663.11	2106.00
663.44	2095.00
663.77	2079.00
664.10	2071.00
664.43	2090.00
664.77	2042.00
665.10	2063.00
665.43	2034.00
665.76	2091.00
666.09	2036.00
666.42	2047.00
666.75	2023.00
667.08	2015.00
667.42	2022.00
667.75	2023.00
668.08	1996.00
668.41	1976.00
668.74	1972.00
669.07	1962.00
669.40	1971.00
669.73	1953.00
670.06	1976.00
670.40	1949.00
670.73	1961.00
671.06	1954.00
671.39	1951.00
671.72	1933.00
672.05	1935.00
672.38	1890.00
672.71	1918.00
673.04	1899.00
673.37	1912.00
673.70	1893.00
674.03	1882.00
674.36	1883.00
674.69	1866.00
675.02	1849.00
675.35	1842.00
675.68	1845.00
676.01	1839.00
676.34	1817.00
676.67	1839.00
677.00	1836.00
677.33	1829.00
677.66	1804.00
677.99	1802.00
678.32	1801.00
678.65	1793.00
678.98	1790.00
679.31	1784.00
679.64	1769.00
679.97	1795.00
680.30	1770.00
680.63	1740.00
680.96	1751.00
681.29	1745.00
681.62	1724.00
681.95	1741.00
682.28	1702.00
682.61	1710.00
682.94	1697.00
683.27	1691.00
683.60	1683.00
683.93	1685.00
684.25	1666.00
684.58	1657.00
684.91	1672.00
685.24	1641.00
685.57	1643.00
685.90	1644.00
686.23	1616.00
686.56	1664.00
686.89	1619.00
687.21	1596.00
687.54	1635.00
687.87	1602.00
688.20	1587.00
688.53	1596.00
688.86	1603.00
689.19	1565.00
689.51	1572.00
689.84	1558.00
690.17	1551.00
690.50	1539.00
690.83	1534.00
691.16	1520.00
691.48	1521.00
691.81	1488.00
692.14	1494.00
692.47	1505.00
692.80	1491.00
693.12	1482.00
693.45	1485.00
693.78	1477.00
694.11	1467.00
694.44	1451.00
694.76	1468.00
695.09	1453.00
695.42	1415.00
695.75	1400.00
696.07	1413.00
696.40	1404.00
696.73	1385.00
697.06	1385.00
697.38	1375.00
697.71	1401.00
698.04	1386.00
698.37	1359.00
698.69	1371.00
699.02	1360.00
699.35	1356.00
699.67	1334.00
700.00	1339.00
700.33	1310.00
700.66	1325.00
700.98	1304.00
701.31	1294.00
701.64	1286.00
701.96	1288.00
702.29	1280.00
702.62	1276.00
702.94	1258.00
703.27	1255.00
703.60	1248.00
703.92	1230.00
704.25	1244.00
704.58	1232.00
704.90	1212.00
705.23	1210.00
705.56	1195.00
705.88	1199.00
706.21	1185.00
706.53	1168.00
706.86	1173.00
707.19	1150.00
707.51	1161.00
707.84	1151.00
708.16	1151.00
708.49	1140.00
708.82	1140.00
709.14	1126.00
709.47	1139.00
709.79	1118.00
710.12	1102.00
710.45	1093.00
710.77	1097.00
711.10	1071.00
711.42	1061.00
711.75	1052.00
712.07	1056.00
712.40	1043.00
712.72	1043.00
713.05	1011.00
713.37	1028.00
713.70	1021.00
714.03	1012.00
714.35	1004.00
714.68	975.00
715.00	971.00
715.33	972.00
715.65	966.00
715.98	952.00
716.30	957.00
716.63	949.00
716.95	919.00
717.28	932.00
717.60	899.00
717.92	909.00
718.25	895.00
718.57	894.00
718.90	888.00
719.22	873.00
719.55	853.00
719.87	852.00
720.20	872.00
720.52	838.00
720.84	840.00
721.17	820.00
721.49	836.00
721.82	799.00
722.14	804.00
722.47	804.00
722.79	784.00
723.11	773.00
723.44	764.00
723.76	775.00
724.09	771.00
724.41	766.00
724.73	758.00
725.06	751.00
725.38	746.00
725.70	727.00
726.03	738.00
726.35	733.00
726.67	740.00
727.00	732.00
727.32	733.00
727.65	705.00
727.97	721.00
728.29	706.00
728.61	702.00
728.94	694.00
729.26	684.00
729.58	679.00
729.91	670.00
730.23	678.00
730.55	659.00
730.88	680.00
731.20	668.00
731.52	663.00
731.84	648.00
732.17	659.00
732.49	645.00
732.81	645.00
733.14	643.00
733.46	633.00
733.78	628.00
734.10	635.00
734.43	645.00
734.75	625.00
735.07	622.00
735.39	612.00
735.72	608.00
736.04	609.00
736.36	606.00
736.68	591.00
737.00	600.00
737.33	601.00
737.65	599.00
737.97	586.00
738.29	589.00
738.61	584.00
738.94	581.00
739.26	580.00
739.58	560.00
739.90	560.00
740.22	570.00
740.54	566.00
740.87	557.00
741.19	548.00
741.51	560.00
741.83	564.00
742.15	553.00
742.47	544.00
742.79	554.00
743.12	536.00
743.44	542.00
743.76	530.00
744.08	529.00
744.40	510.00
744.72	532.00
745.04	517.00
745.36	516.00
745.68	509.00
746.00	506.00
746.33	503.00
746.65	502.00
746.97	503.00
747.29	492.00
747.61	491.00
747.93	489.00
748.25	492.00
748.57	499.00
748.89	483.00
749.21	501.00
749.53	471.00
749.85	478.00
750.17	470.00
750.49	464.00
750.81	479.00
751.13	468.00
751.45	462.00
751.77	468.00
752.09	451.00
752.41	464.00
752.73	451.00
753.05	447.00
753.37	456.00
753.69	452.00
754.01	435.00
754.33	437.00
754.65	434.00
754.97	448.00
755.29	433.00
755.61	419.00
755.93	422.00
756.25	430.00
756.57	421.00
756.89	433.00
757.21	426.00
757.53	412.00
757.84	421.00
758.16	431.00
758.48	416.00
758.80	420.00
759.12	409.00
759.44	409.00
759.76	408.00
760.08	410.00
760.40	401.00
760.71	393.00
761.03	394.00
761.35	403.00
761.67	390.00
761.99	393.00
762.31	371.00
762.63	384.00
762.94	379.00
763.26	378.00
763.58	382.00
763.90	380.00
764.22	387.00
764.54	376.00
764.85	375.00
765.17	363.00
765.49	349.00
765.81	371.00
766.13	373.00
766.44	360.00
766.76	366.00
767.08	352.00
767.40	341.00
767.72	347.00
768.03	348.00
768.35	348.00
768.67	357.00
768.99	347.00
769.30	352.00
769.62	352.00
769.94	336.00
770.26	341.00
770.57	335.00
770.89	334.00
771.21	335.00
771.53	336.00
771.84	338.00
772.16	332.00
772.48	329.00
772.79	331.00
773.11	315.00
773.43	328.00
773.75	326.00
774.06	336.00
774.38	321.00
