SpectraSuite Data File
++++++++++++++++++++++++++++++++++++
Date: Fri Jul 12 13:42:36 ART 2024
User: Javier
Dark Spectrum Present: Yes
Reference Spectrum Present: No
Number of Sampled Component Spectra: 1
Spectrometers: ADUD7991
Integration Time (usec): 30000 (ADUD7991)
Spectra Averaged: 1 (ADUD7991)
Boxcar Smoothing: 0 (ADUD7991)
Correct for Electrical Dark: No (ADUD7991)
Strobe/Lamp Enabled: No (ADUD7991)
Correct for Detector Non-linearity: No (ADUD7991)
Correct for Stray Light: No (ADUD7991)
Number of Pixels in Processed Spectrum: 2048
>>>>>Begin Processed Spectral Data<<<<<
338.97	0.00
339.33	0.00
339.70	-4.00
340.06	-4.00
340.42	-11.00
340.79	-6.00
341.15	-9.00
341.52	-11.00
341.88	-3.00
342.24	-4.00
342.61	-6.00
342.97	-3.00
343.33	-2.00
343.70	-6.00
344.06	-8.00
344.43	0.00
344.79	-6.00
345.15	-5.00
345.52	-5.00
345.88	-6.00
346.24	-3.00
346.61	-11.00
346.97	-8.00
347.33	-10.00
347.70	1.00
348.06	-2.00
348.42	-8.00
348.79	-2.00
349.15	3.00
349.51	-3.00
349.88	-5.00
350.24	-4.00
350.60	-7.00
350.97	-4.00
351.33	-9.00
351.69	3.00
352.05	-1.00
352.42	-12.00
352.78	-11.00
353.14	-1.00
353.51	-5.00
353.87	-5.00
354.23	-4.00
354.60	0.00
354.96	-7.00
355.32	-3.00
355.68	-7.00
356.05	-1.00
356.41	3.00
356.77	-5.00
357.13	-11.00
357.50	-6.00
357.86	-7.00
358.22	-12.00
358.58	-3.00
358.95	-7.00
359.31	-3.00
359.67	0.00
360.03	1.00
360.40	-9.00
360.76	-8.00
361.12	-5.00
361.48	1.00
361.85	1.00
362.21	-2.00
362.57	-3.00
362.93	-10.00
363.29	-10.00
363.66	-2.00
364.02	-3.00
364.38	2.00
364.74	-3.00
365.10	-8.00
365.47	-1.00
365.83	-7.00
366.19	-7.00
366.55	-1.00
366.91	-4.00
367.28	-10.00
367.64	-13.00
368.00	6.00
368.36	-7.00
368.72	-8.00
369.08	-4.00
369.45	-8.00
369.81	-8.00
370.17	-5.00
370.53	-7.00
370.89	-6.00
371.25	-2.00
371.62	-1.00
371.98	-4.00
372.34	1.00
372.70	0.00
373.06	-5.00
373.42	0.00
373.78	-9.00
374.14	-9.00
374.51	5.00
374.87	-1.00
375.23	-9.00
375.59	-7.00
375.95	-3.00
376.31	-5.00
376.67	-6.00
377.03	-6.00
377.39	-3.00
377.76	-5.00
378.12	-4.00
378.48	-4.00
378.84	-3.00
379.20	-4.00
379.56	-3.00
379.92	-8.00
380.28	-3.00
380.64	-5.00
381.00	-8.00
381.36	0.00
381.72	-9.00
382.08	-10.00
382.45	-4.00
382.81	0.00
383.17	-4.00
383.53	-7.00
383.89	2.00
384.25	-5.00
384.61	-4.00
384.97	-5.00
385.33	-4.00
385.69	2.00
386.05	-3.00
386.41	0.00
386.77	-1.00
387.13	-5.00
387.49	-4.00
387.85	-4.00
388.21	1.00
388.57	-3.00
388.93	-3.00
389.29	-8.00
389.65	-3.00
390.01	-8.00
390.37	-1.00
390.73	-5.00
391.09	-7.00
391.45	2.00
391.81	-18.00
392.17	-4.00
392.53	-7.00
392.89	-6.00
393.25	-7.00
393.61	2.00
393.97	5.00
394.33	6.00
394.69	-3.00
395.05	10.00
395.41	1.00
395.77	-2.00
396.12	-3.00
396.48	1.00
396.84	0.00
397.20	-5.00
397.56	-4.00
397.92	-4.00
398.28	3.00
398.64	1.00
399.00	3.00
399.36	4.00
399.72	5.00
400.08	2.00
400.44	2.00
400.79	-1.00
401.15	3.00
401.51	5.00
401.87	3.00
402.23	-3.00
402.59	6.00
402.95	6.00
403.31	-6.00
403.67	1.00
404.02	8.00
404.38	4.00
404.74	7.00
405.10	5.00
405.46	10.00
405.82	3.00
406.18	6.00
406.53	10.00
406.89	18.00
407.25	8.00
407.61	18.00
407.97	10.00
408.33	10.00
408.69	9.00
409.04	2.00
409.40	13.00
409.76	17.00
410.12	13.00
410.48	6.00
410.83	7.00
411.19	17.00
411.55	19.00
411.91	10.00
412.27	4.00
412.63	20.00
412.98	20.00
413.34	24.00
413.70	9.00
414.06	18.00
414.41	12.00
414.77	16.00
415.13	18.00
415.49	10.00
415.85	19.00
416.20	16.00
416.56	14.00
416.92	20.00
417.28	28.00
417.63	21.00
417.99	22.00
418.35	14.00
418.71	26.00
419.06	31.00
419.42	30.00
419.78	31.00
420.14	28.00
420.49	30.00
420.85	29.00
421.21	24.00
421.57	26.00
421.92	28.00
422.28	18.00
422.64	25.00
422.99	33.00
423.35	36.00
423.71	29.00
424.06	32.00
424.42	38.00
424.78	33.00
425.14	34.00
425.49	36.00
425.85	37.00
426.21	39.00
426.56	38.00
426.92	32.00
427.28	33.00
427.63	37.00
427.99	34.00
428.35	28.00
428.70	44.00
429.06	28.00
429.42	32.00
429.77	31.00
430.13	34.00
430.49	39.00
430.84	39.00
431.20	47.00
431.55	41.00
431.91	37.00
432.27	49.00
432.62	43.00
432.98	47.00
433.34	48.00
433.69	46.00
434.05	47.00
434.40	51.00
434.76	45.00
435.12	49.00
435.47	42.00
435.83	49.00
436.18	54.00
436.54	49.00
436.90	41.00
437.25	48.00
437.61	45.00
437.96	39.00
438.32	49.00
438.67	55.00
439.03	53.00
439.39	60.00
439.74	54.00
440.10	48.00
440.45	50.00
440.81	55.00
441.16	43.00
441.52	57.00
441.87	56.00
442.23	63.00
442.59	50.00
442.94	61.00
443.30	60.00
443.65	49.00
444.01	54.00
444.36	58.00
444.72	57.00
445.07	54.00
445.43	64.00
445.78	56.00
446.14	58.00
446.49	57.00
446.85	57.00
447.20	58.00
447.56	60.00
447.91	58.00
448.27	61.00
448.62	61.00
448.98	59.00
449.33	61.00
449.69	61.00
450.04	75.00
450.39	63.00
450.75	62.00
451.10	58.00
451.46	68.00
451.81	62.00
452.17	62.00
452.52	59.00
452.88	67.00
453.23	61.00
453.58	67.00
453.94	58.00
454.29	50.00
454.65	64.00
455.00	72.00
455.36	65.00
455.71	57.00
456.06	63.00
456.42	67.00
456.77	62.00
457.13	70.00
457.48	65.00
457.83	63.00
458.19	61.00
458.54	60.00
458.90	55.00
459.25	71.00
459.60	71.00
459.96	66.00
460.31	69.00
460.66	66.00
461.02	63.00
461.37	63.00
461.73	76.00
462.08	69.00
462.43	65.00
462.79	75.00
463.14	74.00
463.49	70.00
463.85	64.00
464.20	74.00
464.55	66.00
464.91	68.00
465.26	72.00
465.61	64.00
465.97	63.00
466.32	74.00
466.67	74.00
467.03	64.00
467.38	70.00
467.73	71.00
468.08	74.00
468.44	72.00
468.79	73.00
469.14	61.00
469.50	69.00
469.85	76.00
470.20	73.00
470.55	70.00
470.91	71.00
471.26	67.00
471.61	69.00
471.97	66.00
472.32	74.00
472.67	75.00
473.02	78.00
473.38	71.00
473.73	77.00
474.08	75.00
474.43	75.00
474.78	75.00
475.14	70.00
475.49	73.00
475.84	75.00
476.19	71.00
476.55	76.00
476.90	78.00
477.25	75.00
477.60	80.00
477.95	79.00
478.31	81.00
478.66	74.00
479.01	73.00
479.36	73.00
479.71	81.00
480.07	84.00
480.42	81.00
480.77	72.00
481.12	83.00
481.47	81.00
481.82	75.00
482.18	91.00
482.53	75.00
482.88	88.00
483.23	80.00
483.58	81.00
483.93	91.00
484.29	81.00
484.64	85.00
484.99	86.00
485.34	84.00
485.69	82.00
486.04	89.00
486.39	81.00
486.74	86.00
487.10	90.00
487.45	87.00
487.80	86.00
488.15	81.00
488.50	96.00
488.85	85.00
489.20	84.00
489.55	93.00
489.90	88.00
490.26	81.00
490.61	91.00
490.96	89.00
491.31	98.00
491.66	91.00
492.01	90.00
492.36	93.00
492.71	90.00
493.06	86.00
493.41	84.00
493.76	101.00
494.11	89.00
494.46	92.00
494.81	95.00
495.16	101.00
495.51	90.00
495.86	89.00
496.21	90.00
496.56	100.00
496.91	91.00
497.27	89.00
497.62	100.00
497.97	90.00
498.32	103.00
498.67	93.00
499.02	99.00
499.37	97.00
499.72	91.00
500.07	91.00
500.42	100.00
500.77	105.00
501.11	96.00
501.46	107.00
501.81	106.00
502.16	92.00
502.51	106.00
502.86	104.00
503.21	105.00
503.56	96.00
503.91	110.00
504.26	105.00
504.61	99.00
504.96	100.00
505.31	105.00
505.66	103.00
506.01	107.00
506.36	99.00
506.71	99.00
507.06	113.00
507.41	102.00
507.75	109.00
508.10	108.00
508.45	108.00
508.80	106.00
509.15	112.00
509.50	105.00
509.85	119.00
510.20	106.00
510.55	108.00
510.90	119.00
511.24	109.00
511.59	110.00
511.94	112.00
512.29	121.00
512.64	117.00
512.99	116.00
513.34	115.00
513.68	111.00
514.03	126.00
514.38	115.00
514.73	130.00
515.08	120.00
515.43	124.00
515.77	130.00
516.12	134.00
516.47	124.00
516.82	124.00
517.17	128.00
517.52	131.00
517.86	130.00
518.21	126.00
518.56	136.00
518.91	130.00
519.26	142.00
519.60	131.00
519.95	149.00
520.30	143.00
520.65	137.00
521.00	141.00
521.34	141.00
521.69	143.00
522.04	150.00
522.39	141.00
522.73	148.00
523.08	147.00
523.43	152.00
523.78	142.00
524.12	150.00
524.47	149.00
524.82	149.00
525.17	152.00
525.51	166.00
525.86	149.00
526.21	159.00
526.56	167.00
526.90	164.00
527.25	163.00
527.60	157.00
527.94	159.00
528.29	164.00
528.64	166.00
528.99	167.00
529.33	166.00
529.68	169.00
530.03	184.00
530.37	179.00
530.72	166.00
531.07	175.00
531.41	178.00
531.76	169.00
532.11	175.00
532.45	175.00
532.80	182.00
533.15	181.00
533.49	180.00
533.84	180.00
534.19	188.00
534.53	180.00
534.88	192.00
535.23	189.00
535.57	182.00
535.92	189.00
536.26	199.00
536.61	196.00
536.96	197.00
537.30	208.00
537.65	201.00
537.99	196.00
538.34	200.00
538.69	198.00
539.03	206.00
539.38	201.00
539.72	199.00
540.07	197.00
540.42	202.00
540.76	206.00
541.11	212.00
541.45	215.00
541.80	194.00
542.14	207.00
542.49	213.00
542.84	230.00
543.18	230.00
543.53	226.00
543.87	222.00
544.22	212.00
544.56	234.00
544.91	236.00
545.25	220.00
545.60	233.00
545.94	230.00
546.29	227.00
546.63	241.00
546.98	230.00
547.32	239.00
547.67	240.00
548.01	255.00
548.36	248.00
548.70	255.00
549.05	241.00
549.39	247.00
549.74	248.00
550.08	242.00
550.43	259.00
550.77	264.00
551.12	262.00
551.46	255.00
551.81	248.00
552.15	246.00
552.50	263.00
552.84	259.00
553.18	275.00
553.53	268.00
553.87	267.00
554.22	263.00
554.56	272.00
554.91	265.00
555.25	267.00
555.59	269.00
555.94	272.00
556.28	278.00
556.63	275.00
556.97	289.00
557.32	280.00
557.66	291.00
558.00	278.00
558.35	281.00
558.69	286.00
559.03	299.00
559.38	292.00
559.72	296.00
560.07	287.00
560.41	299.00
560.75	297.00
561.10	290.00
561.44	309.00
561.78	298.00
562.13	295.00
562.47	304.00
562.81	309.00
563.16	301.00
563.50	306.00
563.84	315.00
564.19	316.00
564.53	312.00
564.87	307.00
565.22	310.00
565.56	312.00
565.90	308.00
566.25	306.00
566.59	328.00
566.93	315.00
567.28	324.00
567.62	331.00
567.96	322.00
568.30	316.00
568.65	329.00
568.99	306.00
569.33	332.00
569.68	333.00
570.02	325.00
570.36	330.00
570.70	337.00
571.05	343.00
571.39	342.00
571.73	336.00
572.07	346.00
572.42	354.00
572.76	353.00
573.10	348.00
573.44	341.00
573.78	343.00
574.13	358.00
574.47	347.00
574.81	330.00
575.15	356.00
575.49	358.00
575.84	353.00
576.18	350.00
576.52	365.00
576.86	345.00
577.20	338.00
577.55	354.00
577.89	349.00
578.23	347.00
578.57	343.00
578.91	350.00
579.25	354.00
579.60	320.00
579.94	349.00
580.28	340.00
580.62	350.00
580.96	345.00
581.30	353.00
581.65	349.00
581.99	356.00
582.33	366.00
582.67	373.00
583.01	368.00
583.35	374.00
583.69	381.00
584.03	361.00
584.37	370.00
584.72	371.00
585.06	382.00
585.40	370.00
585.74	393.00
586.08	371.00
586.42	384.00
586.76	376.00
587.10	386.00
587.44	374.00
587.78	385.00
588.12	377.00
588.46	388.00
588.80	391.00
589.15	374.00
589.49	398.00
589.83	385.00
590.17	364.00
590.51	384.00
590.85	393.00
591.19	377.00
591.53	403.00
591.87	392.00
592.21	389.00
592.55	388.00
592.89	398.00
593.23	397.00
593.57	386.00
593.91	390.00
594.25	398.00
594.59	401.00
594.93	390.00
595.27	404.00
595.61	383.00
595.95	403.00
596.29	390.00
596.63	399.00
596.97	398.00
597.31	402.00
597.65	398.00
597.99	393.00
598.32	408.00
598.66	406.00
599.00	398.00
599.34	417.00
599.68	402.00
600.02	410.00
600.36	408.00
600.70	412.00
601.04	400.00
601.38	412.00
601.72	406.00
602.06	402.00
602.40	402.00
602.73	402.00
603.07	414.00
603.41	413.00
603.75	396.00
604.09	419.00
604.43	408.00
604.77	421.00
605.11	421.00
605.45	415.00
605.78	415.00
606.12	414.00
606.46	425.00
606.80	412.00
607.14	413.00
607.48	408.00
607.81	415.00
608.15	423.00
608.49	419.00
608.83	411.00
609.17	436.00
609.51	414.00
609.84	415.00
610.18	423.00
610.52	417.00
610.86	416.00
611.20	418.00
611.53	420.00
611.87	411.00
612.21	422.00
612.55	420.00
612.89	417.00
613.22	426.00
613.56	422.00
613.90	417.00
614.24	418.00
614.57	436.00
614.91	419.00
615.25	427.00
615.59	425.00
615.92	424.00
616.26	428.00
616.60	445.00
616.94	418.00
617.27	418.00
617.61	428.00
617.95	433.00
618.29	433.00
618.62	423.00
618.96	427.00
619.30	418.00
619.63	427.00
619.97	424.00
620.31	427.00
620.64	413.00
620.98	434.00
621.32	431.00
621.66	422.00
621.99	420.00
622.33	428.00
622.67	425.00
623.00	420.00
623.34	425.00
623.68	427.00
624.01	442.00
624.35	427.00
624.68	440.00
625.02	429.00
625.36	417.00
625.69	428.00
626.03	417.00
626.37	432.00
626.70	425.00
627.04	416.00
627.37	455.00
627.71	417.00
628.05	421.00
628.38	439.00
628.72	424.00
629.05	426.00
629.39	428.00
629.73	419.00
630.06	420.00
630.40	421.00
630.73	425.00
631.07	414.00
631.41	410.00
631.74	426.00
632.08	432.00
632.41	426.00
632.75	430.00
633.08	423.00
633.42	428.00
633.75	423.00
634.09	398.00
634.42	418.00
634.76	415.00
635.09	420.00
635.43	417.00
635.76	406.00
636.10	406.00
636.43	428.00
636.77	413.00
637.10	418.00
637.44	408.00
637.77	417.00
638.11	424.00
638.44	419.00
638.78	420.00
639.11	410.00
639.45	416.00
639.78	415.00
640.12	408.00
640.45	406.00
640.79	413.00
641.12	415.00
641.46	411.00
641.79	406.00
642.12	402.00
642.46	413.00
642.79	407.00
643.13	412.00
643.46	416.00
643.80	395.00
644.13	405.00
644.46	409.00
644.80	391.00
645.13	404.00
645.47	396.00
645.80	402.00
646.13	390.00
646.47	397.00
646.80	398.00
647.13	403.00
647.47	392.00
647.80	400.00
648.14	388.00
648.47	395.00
648.80	389.00
649.14	407.00
649.47	395.00
649.80	388.00
650.14	385.00
650.47	380.00
650.80	377.00
651.14	400.00
651.47	393.00
651.80	379.00
652.14	384.00
652.47	379.00
652.80	378.00
653.14	387.00
653.47	387.00
653.80	366.00
654.13	379.00
654.47	376.00
654.80	379.00
655.13	370.00
655.47	373.00
655.80	367.00
656.13	388.00
656.46	380.00
656.80	372.00
657.13	375.00
657.46	373.00
657.79	376.00
658.13	377.00
658.46	366.00
658.79	366.00
659.12	363.00
659.45	354.00
659.79	354.00
660.12	375.00
660.45	355.00
660.78	357.00
661.12	347.00
661.45	361.00
661.78	364.00
662.11	358.00
662.44	360.00
662.77	334.00
663.11	356.00
663.44	352.00
663.77	349.00
664.10	357.00
664.43	358.00
664.77	354.00
665.10	343.00
665.43	343.00
665.76	353.00
666.09	347.00
666.42	357.00
666.75	358.00
667.08	350.00
667.42	338.00
667.75	346.00
668.08	349.00
668.41	344.00
668.74	347.00
669.07	339.00
669.40	338.00
669.73	345.00
670.06	341.00
670.40	341.00
670.73	336.00
671.06	342.00
671.39	335.00
671.72	341.00
672.05	326.00
672.38	330.00
672.71	329.00
673.04	338.00
673.37	331.00
673.70	313.00
674.03	323.00
674.36	315.00
674.69	336.00
675.02	327.00
675.35	317.00
675.68	319.00
676.01	319.00
676.34	322.00
676.67	317.00
677.00	326.00
677.33	315.00
677.66	313.00
677.99	317.00
678.32	317.00
678.65	314.00
678.98	302.00
679.31	308.00
679.64	308.00
679.97	312.00
680.30	318.00
680.63	296.00
680.96	293.00
681.29	317.00
681.62	309.00
681.95	301.00
682.28	307.00
682.61	294.00
682.94	302.00
683.27	301.00
683.60	309.00
683.93	305.00
684.25	299.00
684.58	301.00
684.91	309.00
685.24	309.00
685.57	302.00
685.90	285.00
686.23	298.00
686.56	294.00
686.89	291.00
687.21	281.00
687.54	291.00
687.87	286.00
688.20	286.00
688.53	288.00
688.86	274.00
689.19	287.00
689.51	299.00
689.84	285.00
690.17	277.00
690.50	275.00
690.83	278.00
691.16	276.00
691.48	278.00
691.81	282.00
692.14	269.00
692.47	268.00
692.80	275.00
693.12	265.00
693.45	267.00
693.78	280.00
694.11	270.00
694.44	267.00
694.76	268.00
695.09	266.00
695.42	268.00
695.75	257.00
696.07	275.00
696.40	254.00
696.73	253.00
697.06	257.00
697.38	260.00
697.71	257.00
698.04	262.00
698.37	255.00
698.69	252.00
699.02	248.00
699.35	251.00
699.67	253.00
700.00	250.00
700.33	246.00
700.66	242.00
700.98	256.00
701.31	240.00
701.64	238.00
701.96	247.00
702.29	246.00
702.62	238.00
702.94	239.00
703.27	250.00
703.60	234.00
703.92	241.00
704.25	239.00
704.58	239.00
704.90	230.00
705.23	233.00
705.56	235.00
705.88	244.00
706.21	240.00
706.53	231.00
706.86	231.00
707.19	227.00
707.51	217.00
707.84	210.00
708.16	221.00
708.49	221.00
708.82	223.00
709.14	216.00
709.47	229.00
709.79	228.00
710.12	212.00
710.45	216.00
710.77	222.00
711.10	220.00
711.42	212.00
711.75	215.00
712.07	207.00
712.40	209.00
712.72	199.00
713.05	201.00
713.37	197.00
713.70	203.00
714.03	212.00
714.35	205.00
714.68	197.00
715.00	204.00
715.33	190.00
715.65	195.00
715.98	192.00
716.30	199.00
716.63	189.00
716.95	181.00
717.28	190.00
717.60	183.00
717.92	182.00
718.25	179.00
718.57	177.00
718.90	193.00
719.22	175.00
719.55	183.00
719.87	179.00
720.20	170.00
720.52	171.00
720.84	172.00
721.17	168.00
721.49	167.00
721.82	166.00
722.14	168.00
722.47	168.00
722.79	173.00
723.11	174.00
723.44	166.00
723.76	166.00
724.09	171.00
724.41	169.00
724.73	163.00
725.06	157.00
725.38	163.00
725.70	154.00
726.03	164.00
726.35	148.00
726.67	161.00
727.00	158.00
727.32	151.00
727.65	148.00
727.97	145.00
728.29	146.00
728.61	142.00
728.94	153.00
729.26	144.00
729.58	148.00
729.91	141.00
730.23	156.00
730.55	152.00
730.88	155.00
731.20	158.00
731.52	147.00
731.84	147.00
732.17	147.00
732.49	144.00
732.81	143.00
733.14	144.00
733.46	141.00
733.78	147.00
734.10	135.00
734.43	141.00
734.75	141.00
735.07	137.00
735.39	135.00
735.72	131.00
736.04	144.00
736.36	137.00
736.68	138.00
737.00	138.00
737.33	142.00
737.65	141.00
737.97	129.00
738.29	134.00
738.61	137.00
738.94	132.00
739.26	128.00
739.58	136.00
739.90	127.00
740.22	126.00
740.54	132.00
740.87	128.00
741.19	136.00
741.51	140.00
741.83	133.00
742.15	127.00
742.47	126.00
742.79	133.00
743.12	121.00
743.44	124.00
743.76	133.00
744.08	131.00
744.40	127.00
744.72	124.00
745.04	120.00
745.36	118.00
745.68	120.00
746.00	116.00
746.33	129.00
746.65	121.00
746.97	120.00
747.29	129.00
747.61	116.00
747.93	116.00
748.25	114.00
748.57	124.00
748.89	117.00
749.21	125.00
749.53	118.00
749.85	120.00
750.17	117.00
750.49	116.00
750.81	122.00
751.13	110.00
751.45	120.00
751.77	119.00
752.09	122.00
752.41	127.00
752.73	123.00
753.05	122.00
753.37	116.00
753.69	120.00
754.01	122.00
754.33	119.00
754.65	121.00
754.97	123.00
755.29	114.00
755.61	114.00
755.93	119.00
756.25	116.00
756.57	120.00
756.89	116.00
757.21	113.00
757.53	121.00
757.84	106.00
758.16	112.00
758.48	121.00
758.80	107.00
759.12	117.00
759.44	121.00
759.76	121.00
760.08	117.00
760.40	114.00
760.71	110.00
761.03	114.00
761.35	115.00
761.67	119.00
761.99	111.00
762.31	119.00
762.63	118.00
762.94	121.00
763.26	117.00
763.58	114.00
763.90	120.00
764.22	113.00
764.54	118.00
764.85	123.00
765.17	121.00
765.49	111.00
765.81	112.00
766.13	117.00
766.44	121.00
766.76	124.00
767.08	120.00
767.40	114.00
767.72	118.00
768.03	122.00
768.35	121.00
768.67	125.00
768.99	116.00
769.30	119.00
769.62	122.00
769.94	111.00
770.26	118.00
770.57	126.00
770.89	125.00
771.21	121.00
771.53	118.00
771.84	130.00
772.16	119.00
772.48	129.00
772.79	114.00
773.11	129.00
773.43	125.00
773.75	129.00
774.06	125.00
774.38	130.00
774.70	117.00
775.01	117.00
775.33	126.00
775.65	128.00
775.96	115.00
776.28	123.00
776.59	121.00
776.91	127.00
777.23	127.00
777.54	117.00
777.86	126.00
778.18	130.00
778.49	126.00
778.81	122.00
779.13	126.00
779.44	123.00
779.76	133.00
780.07	128.00
780.39	121.00
780.71	117.00
781.02	126.00
781.34	134.00
781.65	145.00
781.97	131.00
782.28	140.00
782.60	140.00
782.91	132.00
783.23	126.00
783.55	132.00
783.86	130.00
784.18	130.00
784.49	138.00
784.81	149.00
785.12	127.00
785.44	140.00
785.75	129.00
786.07	131.00
786.38	136.00
786.70	145.00
787.01	133.00
787.33	137.00
787.64	139.00
787.96	140.00
788.27	141.00
788.59	149.00
788.90	141.00
789.22	147.00
789.53	143.00
789.85	139.00
790.16	138.00
790.47	131.00
790.79	143.00
791.10	134.00
