SpectraSuite Data File
++++++++++++++++++++++++++++++++++++
Date: Thu Jul 04 13:26:09 ART 2024
User: Javier
Dark Spectrum Present: Yes
Reference Spectrum Present: No
Number of Sampled Component Spectra: 1
Spectrometers: ADUD7991
Integration Time (usec): 5000000 (ADUD7991)
Spectra Averaged: 1 (ADUD7991)
Boxcar Smoothing: 0 (ADUD7991)
Correct for Electrical Dark: No (ADUD7991)
Strobe/Lamp Enabled: No (ADUD7991)
Correct for Detector Non-linearity: No (ADUD7991)
Correct for Stray Light: No (ADUD7991)
Number of Pixels in Processed Spectrum: 2048
>>>>>Begin Processed Spectral Data<<<<<
338.97	0.00
339.33	-6.00
339.70	3.00
340.06	-8.00
340.42	2.00
340.79	5.00
341.15	3.00
341.52	2.00
341.88	-1.00
342.24	-5.00
342.61	0.00
342.97	2.00
343.33	1.00
343.70	3.00
344.06	-2.00
344.43	8.00
344.79	-2.00
345.15	-1.00
345.52	6.00
345.88	-1.00
346.24	-4.00
346.61	3.00
346.97	6.00
347.33	-3.00
347.70	-2.00
348.06	-6.00
348.42	2.00
348.79	1.00
349.15	-11.00
349.51	3.00
349.88	-1.00
350.24	-3.00
350.60	3.00
350.97	2.00
351.33	11.00
351.69	7.00
352.05	3.00
352.42	5.00
352.78	4.00
353.14	2.00
353.51	7.00
353.87	5.00
354.23	-7.00
354.60	-4.00
354.96	-6.00
355.32	3.00
355.68	-6.00
356.05	4.00
356.41	3.00
356.77	6.00
357.13	8.00
357.50	7.00
357.86	4.00
358.22	3.00
358.58	3.00
358.95	5.00
359.31	-8.00
359.67	0.00
360.03	-4.00
360.40	1.00
360.76	-4.00
361.12	-6.00
361.48	4.00
361.85	2.00
362.21	1.00
362.57	13.00
362.93	6.00
363.29	1.00
363.66	-6.00
364.02	2.00
364.38	-1.00
364.74	4.00
365.10	-3.00
365.47	2.00
365.83	3.00
366.19	1.00
366.55	4.00
366.91	1.00
367.28	0.00
367.64	9.00
368.00	-3.00
368.36	4.00
368.72	4.00
369.08	10.00
369.45	2.00
369.81	3.00
370.17	2.00
370.53	-1.00
370.89	4.00
371.25	0.00
371.62	8.00
371.98	3.00
372.34	3.00
372.70	1.00
373.06	-4.00
373.42	-3.00
373.78	-5.00
374.14	-2.00
374.51	-1.00
374.87	-5.00
375.23	-1.00
375.59	3.00
375.95	4.00
376.31	-3.00
376.67	-9.00
377.03	0.00
377.39	-2.00
377.76	3.00
378.12	1.00
378.48	4.00
378.84	3.00
379.20	7.00
379.56	4.00
379.92	-4.00
380.28	2.00
380.64	-4.00
381.00	0.00
381.36	6.00
381.72	11.00
382.08	7.00
382.45	2.00
382.81	4.00
383.17	-2.00
383.53	8.00
383.89	1.00
384.25	-3.00
384.61	1.00
384.97	6.00
385.33	4.00
385.69	-2.00
386.05	-3.00
386.41	5.00
386.77	6.00
387.13	-7.00
387.49	-4.00
387.85	6.00
388.21	-3.00
388.57	1.00
388.93	1.00
389.29	-10.00
389.65	6.00
390.01	-1.00
390.37	13.00
390.73	-4.00
391.09	3.00
391.45	7.00
391.81	4.00
392.17	1.00
392.53	3.00
392.89	9.00
393.25	-1.00
393.61	-3.00
393.97	5.00
394.33	6.00
394.69	0.00
395.05	7.00
395.41	4.00
395.77	-2.00
396.12	-4.00
396.48	4.00
396.84	-3.00
397.20	-6.00
397.56	-2.00
397.92	-2.00
398.28	1.00
398.64	7.00
399.00	2.00
399.36	11.00
399.72	-7.00
400.08	3.00
400.44	11.00
400.79	5.00
401.15	5.00
401.51	9.00
401.87	10.00
402.23	3.00
402.59	6.00
402.95	7.00
403.31	3.00
403.67	7.00
404.02	4.00
404.38	9.00
404.74	15.00
405.10	4.00
405.46	7.00
405.82	-6.00
406.18	1.00
406.53	1.00
406.89	4.00
407.25	-4.00
407.61	3.00
407.97	9.00
408.33	-1.00
408.69	5.00
409.04	8.00
409.40	3.00
409.76	0.00
410.12	7.00
410.48	4.00
410.83	9.00
411.19	10.00
411.55	4.00
411.91	3.00
412.27	11.00
412.63	2.00
412.98	9.00
413.34	7.00
413.70	6.00
414.06	11.00
414.41	15.00
414.77	2.00
415.13	6.00
415.49	11.00
415.85	6.00
416.20	11.00
416.56	12.00
416.92	7.00
417.28	-2.00
417.63	15.00
417.99	7.00
418.35	4.00
418.71	6.00
419.06	6.00
419.42	5.00
419.78	7.00
420.14	9.00
420.49	11.00
420.85	3.00
421.21	8.00
421.57	5.00
421.92	10.00
422.28	9.00
422.64	15.00
422.99	2.00
423.35	10.00
423.71	10.00
424.06	4.00
424.42	2.00
424.78	2.00
425.14	12.00
425.49	4.00
425.85	4.00
426.21	11.00
426.56	4.00
426.92	-1.00
427.28	6.00
427.63	12.00
427.99	15.00
428.35	12.00
428.70	9.00
429.06	10.00
429.42	-1.00
429.77	2.00
430.13	11.00
430.49	6.00
430.84	14.00
431.20	9.00
431.55	9.00
431.91	10.00
432.27	0.00
432.62	8.00
432.98	2.00
433.34	10.00
433.69	7.00
434.05	10.00
434.40	12.00
434.76	13.00
435.12	10.00
435.47	13.00
435.83	12.00
436.18	8.00
436.54	2.00
436.90	14.00
437.25	4.00
437.61	5.00
437.96	6.00
438.32	1.00
438.67	6.00
439.03	9.00
439.39	15.00
439.74	14.00
440.10	8.00
440.45	14.00
440.81	14.00
441.16	9.00
441.52	5.00
441.87	8.00
442.23	2.00
442.59	6.00
442.94	15.00
443.30	9.00
443.65	9.00
444.01	11.00
444.36	7.00
444.72	16.00
445.07	12.00
445.43	7.00
445.78	11.00
446.14	8.00
446.49	19.00
446.85	17.00
447.20	8.00
447.56	9.00
447.91	12.00
448.27	8.00
448.62	20.00
448.98	10.00
449.33	14.00
449.69	9.00
450.04	4.00
450.39	5.00
450.75	15.00
451.10	22.00
451.46	12.00
451.81	15.00
452.17	8.00
452.52	-1.00
452.88	29.00
453.23	14.00
453.58	14.00
453.94	9.00
454.29	11.00
454.65	21.00
455.00	6.00
455.36	9.00
455.71	12.00
456.06	15.00
456.42	5.00
456.77	6.00
457.13	14.00
457.48	13.00
457.83	21.00
458.19	16.00
458.54	9.00
458.90	21.00
459.25	9.00
459.60	14.00
459.96	19.00
460.31	11.00
460.66	11.00
461.02	21.00
461.37	15.00
461.73	9.00
462.08	13.00
462.43	11.00
462.79	17.00
463.14	10.00
463.49	0.00
463.85	14.00
464.20	13.00
464.55	11.00
464.91	22.00
465.26	20.00
465.61	21.00
465.97	22.00
466.32	18.00
466.67	14.00
467.03	18.00
467.38	22.00
467.73	21.00
468.08	17.00
468.44	17.00
468.79	18.00
469.14	14.00
469.50	24.00
469.85	15.00
470.20	19.00
470.55	32.00
470.91	7.00
471.26	20.00
471.61	14.00
471.97	25.00
472.32	20.00
472.67	16.00
473.02	20.00
473.38	15.00
473.73	28.00
474.08	14.00
474.43	25.00
474.78	16.00
475.14	14.00
475.49	17.00
475.84	23.00
476.19	25.00
476.55	20.00
476.90	24.00
477.25	30.00
477.60	30.00
477.95	22.00
478.31	24.00
478.66	15.00
479.01	23.00
479.36	26.00
479.71	21.00
480.07	31.00
480.42	23.00
480.77	13.00
481.12	29.00
481.47	26.00
481.82	27.00
482.18	32.00
482.53	25.00
482.88	23.00
483.23	27.00
483.58	32.00
483.93	28.00
484.29	17.00
484.64	22.00
484.99	28.00
485.34	19.00
485.69	26.00
486.04	24.00
486.39	32.00
486.74	25.00
487.10	34.00
487.45	34.00
487.80	28.00
488.15	28.00
488.50	25.00
488.85	19.00
489.20	31.00
489.55	43.00
489.90	29.00
490.26	20.00
490.61	31.00
490.96	42.00
491.31	30.00
491.66	30.00
492.01	42.00
492.36	42.00
492.71	31.00
493.06	38.00
493.41	26.00
493.76	43.00
494.11	27.00
494.46	26.00
494.81	25.00
495.16	43.00
495.51	32.00
495.86	32.00
496.21	33.00
496.56	35.00
496.91	38.00
497.27	47.00
497.62	38.00
497.97	35.00
498.32	38.00
498.67	36.00
499.02	43.00
499.37	41.00
499.72	45.00
500.07	38.00
500.42	36.00
500.77	39.00
501.11	40.00
501.46	44.00
501.81	28.00
502.16	37.00
502.51	48.00
502.86	41.00
503.21	39.00
503.56	40.00
503.91	42.00
504.26	38.00
504.61	39.00
504.96	44.00
505.31	50.00
505.66	36.00
506.01	33.00
506.36	44.00
506.71	40.00
507.06	45.00
507.41	49.00
507.75	35.00
508.10	52.00
508.45	31.00
508.80	45.00
509.15	50.00
509.50	38.00
509.85	47.00
510.20	33.00
510.55	44.00
510.90	49.00
511.24	52.00
511.59	49.00
511.94	42.00
512.29	62.00
512.64	50.00
512.99	49.00
513.34	46.00
513.68	62.00
514.03	48.00
514.38	57.00
514.73	49.00
515.08	45.00
515.43	43.00
515.77	48.00
516.12	53.00
516.47	50.00
516.82	38.00
517.17	46.00
517.52	45.00
517.86	54.00
518.21	60.00
518.56	65.00
518.91	52.00
519.26	55.00
519.60	47.00
519.95	52.00
520.30	49.00
520.65	54.00
521.00	59.00
521.34	55.00
521.69	50.00
522.04	50.00
522.39	55.00
522.73	56.00
523.08	47.00
523.43	59.00
523.78	50.00
524.12	45.00
524.47	54.00
524.82	61.00
525.17	53.00
525.51	62.00
525.86	61.00
526.21	60.00
526.56	57.00
526.90	53.00
527.25	59.00
527.60	67.00
527.94	60.00
528.29	53.00
528.64	54.00
528.99	55.00
529.33	55.00
529.68	62.00
530.03	55.00
530.37	59.00
530.72	56.00
531.07	50.00
531.41	61.00
531.76	54.00
532.11	73.00
532.45	67.00
532.80	68.00
533.15	64.00
533.49	64.00
533.84	59.00
534.19	52.00
534.53	64.00
534.88	65.00
535.23	63.00
535.57	56.00
535.92	64.00
536.26	60.00
536.61	59.00
536.96	56.00
537.30	57.00
537.65	48.00
537.99	60.00
538.34	73.00
538.69	66.00
539.03	68.00
539.38	70.00
539.72	61.00
540.07	62.00
540.42	59.00
540.76	62.00
541.11	61.00
541.45	61.00
541.80	57.00
542.14	64.00
542.49	66.00
542.84	64.00
543.18	67.00
543.53	72.00
543.87	65.00
544.22	70.00
544.56	68.00
544.91	56.00
545.25	59.00
545.60	59.00
545.94	60.00
546.29	61.00
546.63	64.00
546.98	62.00
547.32	65.00
547.67	64.00
548.01	63.00
548.36	62.00
548.70	53.00
549.05	67.00
549.39	68.00
549.74	60.00
550.08	66.00
550.43	64.00
550.77	60.00
551.12	66.00
551.46	69.00
551.81	63.00
552.15	60.00
552.50	55.00
552.84	65.00
553.18	66.00
553.53	59.00
553.87	73.00
554.22	75.00
554.56	70.00
554.91	63.00
555.25	57.00
555.59	66.00
555.94	61.00
556.28	61.00
556.63	61.00
556.97	56.00
557.32	72.00
557.66	60.00
558.00	66.00
558.35	71.00
558.69	65.00
559.03	66.00
559.38	57.00
559.72	67.00
560.07	66.00
560.41	72.00
560.75	67.00
561.10	74.00
561.44	70.00
561.78	68.00
562.13	68.00
562.47	69.00
562.81	74.00
563.16	65.00
563.50	70.00
563.84	74.00
564.19	54.00
564.53	66.00
564.87	64.00
565.22	60.00
565.56	65.00
565.90	62.00
566.25	57.00
566.59	59.00
566.93	66.00
567.28	58.00
567.62	61.00
567.96	73.00
568.30	74.00
568.65	66.00
568.99	60.00
569.33	62.00
569.68	60.00
570.02	74.00
570.36	70.00
570.70	59.00
571.05	67.00
571.39	68.00
571.73	71.00
572.07	64.00
572.42	63.00
572.76	63.00
573.10	54.00
573.44	58.00
573.78	72.00
574.13	64.00
574.47	66.00
574.81	66.00
575.15	59.00
575.49	63.00
575.84	55.00
576.18	66.00
576.52	73.00
576.86	68.00
577.20	53.00
577.55	63.00
577.89	62.00
578.23	52.00
578.57	74.00
578.91	71.00
579.25	61.00
579.60	71.00
579.94	62.00
580.28	62.00
580.62	60.00
580.96	71.00
581.30	59.00
581.65	63.00
581.99	59.00
582.33	63.00
582.67	74.00
583.01	74.00
583.35	75.00
583.69	66.00
584.03	62.00
584.37	70.00
584.72	65.00
585.06	63.00
585.40	64.00
585.74	67.00
586.08	63.00
586.42	69.00
586.76	69.00
587.10	70.00
587.44	64.00
587.78	61.00
588.12	65.00
588.46	70.00
588.80	68.00
589.15	72.00
589.49	62.00
589.83	64.00
590.17	70.00
590.51	62.00
590.85	60.00
591.19	68.00
591.53	55.00
591.87	71.00
592.21	61.00
592.55	60.00
592.89	73.00
593.23	57.00
593.57	63.00
593.91	74.00
594.25	61.00
594.59	68.00
594.93	75.00
595.27	65.00
595.61	62.00
595.95	65.00
596.29	61.00
596.63	62.00
596.97	63.00
597.31	56.00
597.65	74.00
597.99	61.00
598.32	67.00
598.66	69.00
599.00	82.00
599.34	67.00
599.68	65.00
600.02	72.00
600.36	64.00
600.70	67.00
601.04	50.00
601.38	63.00
601.72	68.00
602.06	67.00
602.40	66.00
602.73	63.00
603.07	55.00
603.41	65.00
603.75	62.00
604.09	71.00
604.43	60.00
604.77	65.00
605.11	64.00
605.45	59.00
605.78	59.00
606.12	66.00
606.46	65.00
606.80	59.00
607.14	73.00
607.48	63.00
607.81	63.00
608.15	76.00
608.49	67.00
608.83	66.00
609.17	65.00
609.51	60.00
609.84	71.00
610.18	63.00
610.52	65.00
610.86	66.00
611.20	66.00
611.53	70.00
611.87	69.00
612.21	62.00
612.55	69.00
612.89	60.00
613.22	69.00
613.56	62.00
613.90	66.00
614.24	64.00
614.57	69.00
614.91	61.00
615.25	64.00
615.59	59.00
615.92	53.00
616.26	68.00
616.60	73.00
616.94	64.00
617.27	67.00
617.61	70.00
617.95	58.00
618.29	60.00
618.62	65.00
618.96	61.00
619.30	73.00
619.63	60.00
619.97	64.00
620.31	63.00
620.64	59.00
620.98	63.00
621.32	65.00
621.66	61.00
621.99	60.00
622.33	66.00
622.67	68.00
623.00	65.00
623.34	64.00
623.68	61.00
624.01	62.00
624.35	63.00
624.68	65.00
625.02	58.00
625.36	67.00
625.69	62.00
626.03	63.00
626.37	67.00
626.70	70.00
627.04	62.00
627.37	65.00
627.71	58.00
628.05	70.00
628.38	61.00
628.72	65.00
629.05	63.00
629.39	65.00
629.73	62.00
630.06	62.00
630.40	91.00
630.73	55.00
631.07	60.00
631.41	58.00
631.74	59.00
632.08	68.00
632.41	69.00
632.75	68.00
633.08	61.00
633.42	65.00
633.75	68.00
634.09	70.00
634.42	72.00
634.76	59.00
635.09	59.00
635.43	61.00
635.76	57.00
636.10	71.00
636.43	70.00
636.77	61.00
637.10	67.00
637.44	59.00
637.77	66.00
638.11	62.00
638.44	71.00
638.78	74.00
639.11	73.00
639.45	75.00
639.78	70.00
640.12	65.00
640.45	65.00
640.79	66.00
641.12	66.00
641.46	68.00
641.79	71.00
642.12	60.00
642.46	52.00
642.79	65.00
643.13	61.00
643.46	65.00
643.80	63.00
644.13	53.00
644.46	65.00
644.80	67.00
645.13	61.00
645.47	67.00
645.80	64.00
646.13	58.00
646.47	65.00
646.80	56.00
647.13	72.00
647.47	57.00
647.80	61.00
648.14	63.00
648.47	63.00
648.80	74.00
649.14	64.00
649.47	61.00
649.80	72.00
650.14	67.00
650.47	60.00
650.80	63.00
651.14	58.00
651.47	70.00
651.80	62.00
652.14	73.00
652.47	75.00
652.80	72.00
653.14	69.00
653.47	79.00
653.80	68.00
654.13	68.00
654.47	77.00
654.80	70.00
655.13	72.00
655.47	78.00
655.80	67.00
656.13	77.00
656.46	72.00
656.80	68.00
657.13	76.00
657.46	69.00
657.79	73.00
658.13	73.00
658.46	88.00
658.79	77.00
659.12	70.00
659.45	74.00
659.79	74.00
660.12	90.00
660.45	81.00
660.78	76.00
661.12	78.00
661.45	81.00
661.78	82.00
662.11	91.00
662.44	84.00
662.77	73.00
663.11	87.00
663.44	95.00
663.77	76.00
664.10	77.00
664.43	77.00
664.77	86.00
665.10	86.00
665.43	85.00
665.76	86.00
666.09	91.00
666.42	86.00
666.75	95.00
667.08	100.00
667.42	89.00
667.75	84.00
668.08	97.00
668.41	103.00
668.74	91.00
669.07	105.00
669.40	100.00
669.73	104.00
670.06	106.00
670.40	110.00
670.73	101.00
671.06	105.00
671.39	109.00
671.72	97.00
672.05	110.00
672.38	118.00
672.71	118.00
673.04	119.00
673.37	120.00
673.70	114.00
674.03	118.00
674.36	116.00
674.69	123.00
675.02	136.00
675.35	138.00
675.68	124.00
676.01	137.00
676.34	137.00
676.67	146.00
677.00	149.00
677.33	139.00
677.66	148.00
677.99	142.00
678.32	145.00
678.65	147.00
678.98	150.00
679.31	161.00
679.64	164.00
679.97	171.00
680.30	162.00
680.63	161.00
680.96	162.00
681.29	171.00
681.62	169.00
681.95	174.00
682.28	182.00
682.61	177.00
682.94	174.00
683.27	190.00
683.60	192.00
683.93	194.00
684.25	205.00
684.58	191.00
684.91	207.00
685.24	212.00
685.57	212.00
685.90	216.00
686.23	210.00
686.56	213.00
686.89	223.00
687.21	231.00
687.54	228.00
687.87	227.00
688.20	234.00
688.53	230.00
688.86	248.00
689.19	248.00
689.51	238.00
689.84	243.00
690.17	266.00
690.50	281.00
690.83	272.00
691.16	264.00
691.48	272.00
691.81	285.00
692.14	281.00
692.47	277.00
692.80	275.00
693.12	292.00
693.45	298.00
693.78	295.00
694.11	301.00
694.44	295.00
694.76	300.00
695.09	311.00
695.42	320.00
695.75	304.00
696.07	322.00
696.40	315.00
696.73	305.00
697.06	320.00
697.38	333.00
697.71	326.00
698.04	336.00
698.37	338.00
698.69	350.00
699.02	342.00
699.35	359.00
699.67	352.00
700.00	357.00
700.33	351.00
700.66	375.00
700.98	375.00
701.31	363.00
701.64	371.00
701.96	372.00
702.29	370.00
702.62	372.00
702.94	385.00
703.27	392.00
703.60	389.00
703.92	378.00
704.25	395.00
704.58	398.00
704.90	385.00
705.23	398.00
705.56	406.00
705.88	404.00
706.21	411.00
706.53	400.00
706.86	398.00
707.19	428.00
707.51	414.00
707.84	434.00
708.16	438.00
708.49	437.00
708.82	426.00
709.14	439.00
709.47	430.00
709.79	431.00
710.12	435.00
710.45	447.00
710.77	438.00
711.10	439.00
711.42	446.00
711.75	462.00
712.07	455.00
712.40	454.00
712.72	443.00
713.05	445.00
713.37	449.00
713.70	443.00
714.03	449.00
714.35	458.00
714.68	475.00
715.00	459.00
715.33	455.00
715.65	448.00
715.98	460.00
716.30	465.00
716.63	466.00
716.95	470.00
717.28	474.00
717.60	460.00
717.92	458.00
718.25	472.00
718.57	461.00
718.90	465.00
719.22	461.00
719.55	470.00
719.87	465.00
720.20	471.00
720.52	462.00
720.84	467.00
721.17	448.00
721.49	466.00
721.82	461.00
722.14	450.00
722.47	455.00
722.79	474.00
723.11	464.00
723.44	465.00
723.76	458.00
724.09	450.00
724.41	462.00
724.73	448.00
725.06	469.00
725.38	466.00
725.70	452.00
726.03	468.00
726.35	468.00
726.67	456.00
727.00	470.00
727.32	463.00
727.65	464.00
727.97	471.00
728.29	466.00
728.61	465.00
728.94	484.00
729.26	462.00
729.58	487.00
729.91	467.00
730.23	474.00
730.55	468.00
730.88	474.00
731.20	471.00
731.52	476.00
731.84	472.00
732.17	467.00
732.49	464.00
732.81	480.00
733.14	467.00
733.46	468.00
733.78	478.00
734.10	474.00
734.43	482.00
734.75	465.00
735.07	473.00
735.39	457.00
735.72	475.00
736.04	487.00
736.36	473.00
736.68	482.00
737.00	483.00
737.33	501.00
737.65	488.00
737.97	503.00
738.29	481.00
738.61	483.00
738.94	469.00
739.26	478.00
739.58	469.00
739.90	491.00
740.22	477.00
740.54	471.00
740.87	484.00
741.19	480.00
741.51	472.00
741.83	476.00
742.15	485.00
742.47	484.00
742.79	496.00
743.12	481.00
743.44	487.00
743.76	494.00
744.08	494.00
744.40	488.00
744.72	491.00
745.04	493.00
745.36	493.00
745.68	500.00
746.00	492.00
746.33	499.00
746.65	497.00
746.97	498.00
747.29	501.00
747.61	493.00
747.93	504.00
748.25	487.00
748.57	495.00
748.89	515.00
749.21	509.00
749.53	502.00
749.85	508.00
750.17	512.00
750.49	525.00
750.81	528.00
751.13	506.00
751.45	528.00
751.77	541.00
752.09	523.00
752.41	528.00
752.73	528.00
753.05	537.00
753.37	548.00
753.69	555.00
754.01	545.00
754.33	524.00
754.65	557.00
754.97	533.00
755.29	544.00
755.61	534.00
755.93	539.00
756.25	539.00
756.57	563.00
756.89	556.00
757.21	562.00
757.53	558.00
757.84	573.00
758.16	557.00
758.48	572.00
758.80	578.00
759.12	570.00
759.44	582.00
759.76	567.00
760.08	581.00
760.40	583.00
760.71	575.00
761.03	582.00
761.35	588.00
761.67	600.00
761.99	599.00
762.31	594.00
762.63	594.00
762.94	601.00
763.26	593.00
763.58	602.00
763.90	616.00
764.22	596.00
764.54	607.00
764.85	612.00
765.17	620.00
765.49	644.00
765.81	642.00
766.13	649.00
766.44	641.00
766.76	645.00
767.08	658.00
767.40	648.00
767.72	664.00
768.03	668.00
768.35	664.00
768.67	666.00
768.99	688.00
769.30	699.00
769.62	687.00
769.94	681.00
770.26	688.00
770.57	688.00
770.89	720.00
771.21	708.00
771.53	695.00
771.84	710.00
772.16	725.00
772.48	700.00
772.79	722.00
773.11	744.00
773.43	742.00
773.75	753.00
774.06	736.00
774.38	757.00
774.70	752.00
775.01	762.00
775.33	762.00
775.65	770.00
775.96	771.00
776.28	778.00
776.59	776.00
776.91	777.00
777.23	807.00
777.54	802.00
777.86	808.00
778.18	836.00
778.49	826.00
778.81	830.00
779.13	833.00
779.44	848.00
779.76	855.00
780.07	873.00
780.39	853.00
780.71	861.00
781.02	881.00
781.34	873.00
781.65	917.00
781.97	899.00
782.28	904.00
782.60	935.00
782.91	915.00
783.23	917.00
783.55	933.00
783.86	938.00
784.18	947.00
784.49	940.00
784.81	945.00
785.12	950.00
785.44	985.00
785.75	958.00
786.07	998.00
786.38	960.00
786.70	998.00
787.01	1012.00
787.33	1035.00
787.64	1031.00
787.96	1047.00
788.27	1046.00
788.59	1050.00
788.90	1059.00
789.22	1063.00
789.53	1085.00
789.85	1089.00
790.16	1091.00
790.47	1111.00
790.79	1120.00
791.10	1126.00
791.42	1143.00
791.73	1170.00
792.05	1161.00
792.36	1185.00
792.67	1175.00
792.99	1191.00
793.30	1197.00
793.62	1202.00
793.93	1215.00
794.24	1226.00
794.56	1250.00
794.87	1251.00
795.18	1288.00
795.50	1284.00
795.81	1267.00
796.13	1295.00
796.44	1281.00
796.75	1308.00
797.07	1315.00
797.38	1347.00
797.69	1355.00
798.01	1353.00
798.32	1377.00
798.63	1390.00
798.95	1410.00
799.26	1362.00
799.57	1415.00
799.89	1416.00
800.20	1423.00
800.51	1464.00
800.82	1483.00
801.14	1431.00
801.45	1497.00
801.76	1497.00
802.08	1503.00
802.39	1494.00
802.70	1526.00
803.01	1523.00
803.33	1515.00
