SpectraSuite Data File
++++++++++++++++++++++++++++++++++++
Date: Fri Jul 12 15:03:21 ART 2024
User: Javier
Dark Spectrum Present: Yes
Reference Spectrum Present: No
Number of Sampled Component Spectra: 1
Spectrometers: ADUD7991
Integration Time (usec): 4000 (ADUD7991)
Spectra Averaged: 1 (ADUD7991)
Boxcar Smoothing: 0 (ADUD7991)
Correct for Electrical Dark: No (ADUD7991)
Strobe/Lamp Enabled: No (ADUD7991)
Correct for Detector Non-linearity: No (ADUD7991)
Correct for Stray Light: No (ADUD7991)
Number of Pixels in Processed Spectrum: 2048
>>>>>Begin Processed Spectral Data<<<<<
338.97	0.00
339.33	-5.00
339.70	-5.00
340.06	2.00
340.42	0.00
340.79	0.00
341.15	6.00
341.52	-3.00
341.88	-5.00
342.24	-4.00
342.61	3.00
342.97	-1.00
343.33	7.00
343.70	-1.00
344.06	-4.00
344.43	-6.00
344.79	-1.00
345.15	-2.00
345.52	2.00
345.88	2.00
346.24	2.00
346.61	-2.00
346.97	6.00
347.33	0.00
347.70	6.00
348.06	3.00
348.42	7.00
348.79	-4.00
349.15	-4.00
349.51	2.00
349.88	-3.00
350.24	4.00
350.60	1.00
350.97	0.00
351.33	6.00
351.69	3.00
352.05	3.00
352.42	-6.00
352.78	-1.00
353.14	-1.00
353.51	7.00
353.87	8.00
354.23	1.00
354.60	-3.00
354.96	-1.00
355.32	3.00
355.68	2.00
356.05	9.00
356.41	-1.00
356.77	2.00
357.13	1.00
357.50	-2.00
357.86	0.00
358.22	6.00
358.58	7.00
358.95	-2.00
359.31	-5.00
359.67	2.00
360.03	-3.00
360.40	-3.00
360.76	-6.00
361.12	-5.00
361.48	-3.00
361.85	1.00
362.21	-1.00
362.57	-1.00
362.93	-3.00
363.29	-1.00
363.66	-1.00
364.02	3.00
364.38	1.00
364.74	0.00
365.10	5.00
365.47	4.00
365.83	-6.00
366.19	-2.00
366.55	2.00
366.91	-1.00
367.28	0.00
367.64	1.00
368.00	0.00
368.36	-4.00
368.72	-1.00
369.08	2.00
369.45	3.00
369.81	-1.00
370.17	1.00
370.53	2.00
370.89	2.00
371.25	2.00
371.62	3.00
371.98	3.00
372.34	4.00
372.70	-6.00
373.06	5.00
373.42	-2.00
373.78	0.00
374.14	1.00
374.51	6.00
374.87	0.00
375.23	1.00
375.59	6.00
375.95	-2.00
376.31	-1.00
376.67	2.00
377.03	-5.00
377.39	5.00
377.76	-2.00
378.12	0.00
378.48	2.00
378.84	-3.00
379.20	-6.00
379.56	1.00
379.92	1.00
380.28	6.00
380.64	6.00
381.00	1.00
381.36	-6.00
381.72	9.00
382.08	1.00
382.45	-3.00
382.81	2.00
383.17	3.00
383.53	0.00
383.89	-8.00
384.25	7.00
384.61	2.00
384.97	5.00
385.33	4.00
385.69	-1.00
386.05	9.00
386.41	3.00
386.77	0.00
387.13	4.00
387.49	-1.00
387.85	-1.00
388.21	-4.00
388.57	-3.00
388.93	2.00
389.29	-1.00
389.65	10.00
390.01	10.00
390.37	8.00
390.73	1.00
391.09	8.00
391.45	2.00
391.81	0.00
392.17	-2.00
392.53	-3.00
392.89	10.00
393.25	5.00
393.61	5.00
393.97	7.00
394.33	-4.00
394.69	11.00
395.05	1.00
395.41	6.00
395.77	14.00
396.12	4.00
396.48	5.00
396.84	12.00
397.20	4.00
397.56	7.00
397.92	11.00
398.28	11.00
398.64	12.00
399.00	10.00
399.36	16.00
399.72	11.00
400.08	12.00
400.44	13.00
400.79	14.00
401.15	15.00
401.51	5.00
401.87	20.00
402.23	11.00
402.59	12.00
402.95	18.00
403.31	19.00
403.67	15.00
404.02	14.00
404.38	26.00
404.74	21.00
405.10	22.00
405.46	19.00
405.82	18.00
406.18	25.00
406.53	29.00
406.89	16.00
407.25	24.00
407.61	29.00
407.97	26.00
408.33	26.00
408.69	21.00
409.04	22.00
409.40	20.00
409.76	19.00
410.12	25.00
410.48	36.00
410.83	29.00
411.19	22.00
411.55	28.00
411.91	37.00
412.27	34.00
412.63	38.00
412.98	34.00
413.34	32.00
413.70	38.00
414.06	35.00
414.41	30.00
414.77	40.00
415.13	34.00
415.49	42.00
415.85	40.00
416.20	43.00
416.56	41.00
416.92	33.00
417.28	36.00
417.63	37.00
417.99	38.00
418.35	45.00
418.71	50.00
419.06	53.00
419.42	46.00
419.78	55.00
420.14	48.00
420.49	48.00
420.85	40.00
421.21	45.00
421.57	50.00
421.92	57.00
422.28	51.00
422.64	55.00
422.99	56.00
423.35	64.00
423.71	62.00
424.06	59.00
424.42	60.00
424.78	59.00
425.14	67.00
425.49	62.00
425.85	56.00
426.21	54.00
426.56	54.00
426.92	65.00
427.28	64.00
427.63	72.00
427.99	70.00
428.35	70.00
428.70	67.00
429.06	72.00
429.42	82.00
429.77	77.00
430.13	71.00
430.49	83.00
430.84	71.00
431.20	86.00
431.55	83.00
431.91	76.00
432.27	80.00
432.62	85.00
432.98	93.00
433.34	91.00
433.69	99.00
434.05	93.00
434.40	90.00
434.76	92.00
435.12	93.00
435.47	90.00
435.83	101.00
436.18	104.00
436.54	92.00
436.90	106.00
437.25	98.00
437.61	104.00
437.96	106.00
438.32	112.00
438.67	112.00
439.03	119.00
439.39	109.00
439.74	120.00
440.10	130.00
440.45	129.00
440.81	133.00
441.16	125.00
441.52	113.00
441.87	138.00
442.23	134.00
442.59	128.00
442.94	134.00
443.30	141.00
443.65	146.00
444.01	150.00
444.36	142.00
444.72	144.00
445.07	159.00
445.43	156.00
445.78	158.00
446.14	159.00
446.49	155.00
446.85	168.00
447.20	157.00
447.56	159.00
447.91	154.00
448.27	171.00
448.62	174.00
448.98	170.00
449.33	159.00
449.69	176.00
450.04	178.00
450.39	185.00
450.75	199.00
451.10	191.00
451.46	182.00
451.81	193.00
452.17	197.00
452.52	203.00
452.88	202.00
453.23	207.00
453.58	215.00
453.94	219.00
454.29	217.00
454.65	222.00
455.00	230.00
455.36	228.00
455.71	229.00
456.06	208.00
456.42	224.00
456.77	231.00
457.13	239.00
457.48	243.00
457.83	246.00
458.19	262.00
458.54	247.00
458.90	238.00
459.25	265.00
459.60	270.00
459.96	263.00
460.31	273.00
460.66	270.00
461.02	273.00
461.37	274.00
461.73	276.00
462.08	284.00
462.43	284.00
462.79	293.00
463.14	284.00
463.49	279.00
463.85	293.00
464.20	291.00
464.55	316.00
464.91	321.00
465.26	308.00
465.61	340.00
465.97	324.00
466.32	306.00
466.67	333.00
467.03	345.00
467.38	344.00
467.73	344.00
468.08	335.00
468.44	352.00
468.79	356.00
469.14	352.00
469.50	359.00
469.85	381.00
470.20	381.00
470.55	404.00
470.91	381.00
471.26	405.00
471.61	401.00
471.97	398.00
472.32	415.00
472.67	410.00
473.02	428.00
473.38	416.00
473.73	434.00
474.08	446.00
474.43	461.00
474.78	455.00
475.14	458.00
475.49	466.00
475.84	464.00
476.19	493.00
476.55	477.00
476.90	506.00
477.25	501.00
477.60	490.00
477.95	505.00
478.31	515.00
478.66	533.00
479.01	551.00
479.36	577.00
479.71	537.00
480.07	585.00
480.42	577.00
480.77	570.00
481.12	590.00
481.47	586.00
481.82	592.00
482.18	606.00
482.53	610.00
482.88	618.00
483.23	631.00
483.58	638.00
483.93	641.00
484.29	633.00
484.64	651.00
484.99	660.00
485.34	657.00
485.69	682.00
486.04	704.00
486.39	703.00
486.74	697.00
487.10	712.00
487.45	712.00
487.80	708.00
488.15	714.00
488.50	721.00
488.85	750.00
489.20	741.00
489.55	746.00
489.90	768.00
490.26	748.00
490.61	776.00
490.96	776.00
491.31	784.00
491.66	785.00
492.01	797.00
492.36	798.00
492.71	794.00
493.06	822.00
493.41	816.00
493.76	795.00
494.11	823.00
494.46	833.00
494.81	837.00
495.16	847.00
495.51	854.00
495.86	856.00
496.21	865.00
496.56	863.00
496.91	863.00
497.27	870.00
497.62	875.00
497.97	894.00
498.32	889.00
498.67	887.00
499.02	902.00
499.37	888.00
499.72	902.00
500.07	901.00
500.42	920.00
500.77	912.00
501.11	928.00
501.46	937.00
501.81	921.00
502.16	943.00
502.51	941.00
502.86	945.00
503.21	959.00
503.56	964.00
503.91	951.00
504.26	958.00
504.61	964.00
504.96	987.00
505.31	980.00
505.66	985.00
506.01	993.00
506.36	995.00
506.71	999.00
507.06	1010.00
507.41	1003.00
507.75	1012.00
508.10	994.00
508.45	999.00
508.80	1014.00
509.15	1021.00
509.50	1016.00
509.85	1038.00
510.20	1039.00
510.55	1018.00
510.90	1043.00
511.24	1038.00
511.59	1047.00
511.94	1047.00
512.29	1074.00
512.64	1045.00
512.99	1064.00
513.34	1077.00
513.68	1058.00
514.03	1071.00
514.38	1070.00
514.73	1081.00
515.08	1072.00
515.43	1098.00
515.77	1079.00
516.12	1088.00
516.47	1100.00
516.82	1091.00
517.17	1094.00
517.52	1110.00
517.86	1112.00
518.21	1111.00
518.56	1108.00
518.91	1105.00
519.26	1117.00
519.60	1110.00
519.95	1146.00
520.30	1141.00
520.65	1129.00
521.00	1116.00
521.34	1124.00
521.69	1127.00
522.04	1124.00
522.39	1122.00
522.73	1140.00
523.08	1123.00
523.43	1152.00
523.78	1148.00
524.12	1116.00
524.47	1158.00
524.82	1158.00
525.17	1169.00
525.51	1139.00
525.86	1154.00
526.21	1138.00
526.56	1157.00
526.90	1164.00
527.25	1144.00
527.60	1156.00
527.94	1165.00
528.29	1156.00
528.64	1158.00
528.99	1174.00
529.33	1163.00
529.68	1175.00
530.03	1173.00
530.37	1170.00
530.72	1145.00
531.07	1169.00
531.41	1180.00
531.76	1170.00
532.11	1167.00
532.45	1179.00
532.80	1178.00
533.15	1155.00
533.49	1198.00
533.84	1157.00
534.19	1167.00
534.53	1175.00
534.88	1159.00
535.23	1172.00
535.57	1182.00
535.92	1167.00
536.26	1158.00
536.61	1179.00
536.96	1172.00
537.30	1192.00
537.65	1193.00
537.99	1154.00
538.34	1165.00
538.69	1165.00
539.03	1194.00
539.38	1180.00
539.72	1168.00
540.07	1180.00
540.42	1186.00
540.76	1159.00
541.11	1166.00
541.45	1168.00
541.80	1187.00
542.14	1164.00
542.49	1180.00
542.84	1174.00
543.18	1190.00
543.53	1176.00
543.87	1180.00
544.22	1159.00
544.56	1173.00
544.91	1166.00
545.25	1174.00
545.60	1180.00
545.94	1166.00
546.29	1169.00
546.63	1181.00
546.98	1172.00
547.32	1183.00
547.67	1181.00
548.01	1173.00
548.36	1187.00
548.70	1174.00
549.05	1184.00
549.39	1159.00
549.74	1161.00
550.08	1177.00
550.43	1172.00
550.77	1170.00
551.12	1170.00
551.46	1169.00
551.81	1174.00
552.15	1191.00
552.50	1191.00
552.84	1167.00
553.18	1171.00
553.53	1174.00
553.87	1176.00
554.22	1150.00
554.56	1157.00
554.91	1152.00
555.25	1159.00
555.59	1172.00
555.94	1149.00
556.28	1161.00
556.63	1171.00
556.97	1181.00
557.32	1179.00
557.66	1192.00
558.00	1152.00
558.35	1161.00
558.69	1163.00
559.03	1142.00
559.38	1188.00
559.72	1166.00
560.07	1153.00
560.41	1161.00
560.75	1156.00
561.10	1167.00
561.44	1132.00
561.78	1171.00
562.13	1141.00
562.47	1148.00
562.81	1146.00
563.16	1154.00
563.50	1161.00
563.84	1148.00
564.19	1139.00
564.53	1156.00
564.87	1150.00
565.22	1142.00
565.56	1145.00
565.90	1160.00
566.25	1154.00
566.59	1137.00
566.93	1132.00
567.28	1131.00
567.62	1131.00
567.96	1127.00
568.30	1136.00
568.65	1107.00
568.99	1128.00
569.33	1130.00
569.68	1138.00
570.02	1135.00
570.36	1130.00
570.70	1129.00
571.05	1127.00
571.39	1127.00
571.73	1130.00
572.07	1111.00
572.42	1125.00
572.76	1119.00
573.10	1121.00
573.44	1103.00
573.78	1101.00
574.13	1110.00
574.47	1126.00
574.81	1102.00
575.15	1116.00
575.49	1113.00
575.84	1108.00
576.18	1129.00
576.52	1095.00
576.86	1074.00
577.20	1073.00
577.55	1069.00
577.89	1072.00
578.23	1043.00
578.57	1042.00
578.91	1021.00
579.25	1023.00
579.60	1017.00
579.94	1024.00
580.28	1046.00
580.62	1039.00
580.96	1025.00
581.30	1013.00
581.65	1048.00
581.99	1043.00
582.33	1041.00
582.67	1084.00
583.01	1060.00
583.35	1070.00
583.69	1105.00
584.03	1082.00
584.37	1097.00
584.72	1066.00
585.06	1041.00
585.40	1064.00
585.74	1081.00
586.08	1068.00
586.42	1075.00
586.76	1073.00
587.10	1055.00
587.44	1039.00
587.78	1070.00
588.12	1061.00
588.46	1040.00
588.80	1048.00
589.15	1055.00
589.49	1053.00
589.83	1053.00
590.17	1041.00
590.51	1046.00
590.85	1053.00
591.19	1037.00
591.53	1041.00
591.87	1029.00
592.21	1028.00
592.55	1047.00
592.89	1045.00
593.23	1017.00
593.57	1032.00
593.91	1044.00
594.25	1045.00
594.59	1012.00
594.93	1010.00
595.27	1033.00
595.61	1009.00
595.95	1019.00
596.29	1013.00
596.63	1035.00
596.97	1009.00
597.31	1024.00
597.65	1015.00
597.99	1023.00
598.32	1017.00
598.66	998.00
599.00	1029.00
599.34	1023.00
599.68	978.00
600.02	1028.00
600.36	1017.00
600.70	998.00
601.04	999.00
601.38	1015.00
601.72	999.00
602.06	1016.00
602.40	1004.00
602.73	997.00
603.07	989.00
603.41	993.00
603.75	1013.00
604.09	1009.00
604.43	1004.00
604.77	982.00
605.11	1010.00
605.45	987.00
605.78	985.00
606.12	1001.00
606.46	980.00
606.80	964.00
607.14	999.00
607.48	971.00
607.81	989.00
608.15	996.00
608.49	982.00
608.83	982.00
609.17	992.00
609.51	971.00
609.84	997.00
610.18	991.00
610.52	963.00
610.86	984.00
611.20	985.00
611.53	968.00
611.87	979.00
612.21	980.00
612.55	960.00
612.89	973.00
613.22	968.00
613.56	956.00
613.90	968.00
614.24	951.00
614.57	980.00
614.91	959.00
615.25	957.00
615.59	963.00
615.92	953.00
616.26	976.00
616.60	965.00
616.94	951.00
617.27	938.00
617.61	984.00
617.95	967.00
618.29	943.00
618.62	959.00
618.96	971.00
619.30	953.00
619.63	922.00
619.97	963.00
620.31	952.00
620.64	970.00
620.98	938.00
621.32	938.00
621.66	917.00
621.99	937.00
622.33	951.00
622.67	942.00
623.00	940.00
623.34	957.00
623.68	935.00
624.01	950.00
624.35	940.00
624.68	938.00
625.02	934.00
625.36	932.00
625.69	939.00
626.03	952.00
626.37	941.00
626.70	917.00
627.04	941.00
627.37	947.00
627.71	944.00
628.05	924.00
628.38	933.00
628.72	928.00
629.05	924.00
629.39	930.00
629.73	917.00
630.06	927.00
630.40	932.00
630.73	914.00
631.07	921.00
631.41	919.00
631.74	919.00
632.08	915.00
632.41	936.00
632.75	896.00
633.08	899.00
633.42	923.00
633.75	898.00
634.09	914.00
634.42	898.00
634.76	906.00
635.09	911.00
635.43	909.00
635.76	913.00
636.10	900.00
636.43	913.00
636.77	904.00
637.10	894.00
637.44	903.00
637.77	905.00
638.11	883.00
638.44	893.00
638.78	890.00
639.11	893.00
639.45	879.00
639.78	873.00
640.12	885.00
640.45	884.00
640.79	893.00
641.12	882.00
641.46	887.00
641.79	868.00
642.12	874.00
642.46	859.00
642.79	882.00
643.13	880.00
643.46	894.00
643.80	885.00
644.13	882.00
644.46	856.00
644.80	873.00
645.13	857.00
645.47	862.00
645.80	864.00
646.13	849.00
646.47	867.00
646.80	856.00
647.13	868.00
647.47	873.00
647.80	854.00
648.14	870.00
648.47	881.00
648.80	846.00
649.14	855.00
649.47	847.00
649.80	832.00
650.14	853.00
650.47	841.00
650.80	845.00
651.14	841.00
651.47	860.00
651.80	834.00
652.14	837.00
652.47	821.00
652.80	831.00
653.14	846.00
653.47	835.00
653.80	832.00
654.13	837.00
654.47	818.00
654.80	828.00
655.13	849.00
655.47	818.00
655.80	827.00
656.13	827.00
656.46	821.00
656.80	820.00
657.13	804.00
657.46	826.00
657.79	821.00
658.13	811.00
658.46	827.00
658.79	815.00
659.12	813.00
659.45	805.00
659.79	809.00
660.12	802.00
660.45	815.00
660.78	809.00
661.12	801.00
661.45	795.00
661.78	807.00
662.11	804.00
662.44	796.00
662.77	802.00
663.11	813.00
663.44	784.00
663.77	787.00
664.10	793.00
664.43	804.00
664.77	796.00
665.10	806.00
665.43	790.00
665.76	807.00
666.09	778.00
666.42	810.00
666.75	802.00
667.08	772.00
667.42	786.00
667.75	785.00
668.08	812.00
668.41	785.00
668.74	772.00
669.07	780.00
669.40	784.00
669.73	780.00
670.06	769.00
670.40	779.00
670.73	774.00
671.06	783.00
671.39	785.00
671.72	775.00
672.05	784.00
672.38	757.00
672.71	771.00
673.04	765.00
673.37	775.00
673.70	775.00
674.03	768.00
674.36	759.00
674.69	769.00
675.02	758.00
675.35	768.00
675.68	766.00
676.01	784.00
676.34	764.00
676.67	749.00
677.00	767.00
677.33	768.00
677.66	781.00
677.99	768.00
678.32	768.00
678.65	769.00
678.98	754.00
679.31	769.00
679.64	765.00
679.97	765.00
680.30	757.00
680.63	747.00
680.96	767.00
681.29	758.00
681.62	754.00
681.95	761.00
682.28	760.00
682.61	755.00
682.94	746.00
683.27	752.00
683.60	758.00
683.93	736.00
684.25	752.00
684.58	762.00
684.91	749.00
685.24	763.00
685.57	756.00
685.90	757.00
686.23	746.00
686.56	744.00
686.89	748.00
687.21	756.00
687.54	756.00
687.87	757.00
688.20	734.00
688.53	744.00
688.86	741.00
689.19	757.00
689.51	744.00
689.84	738.00
690.17	734.00
690.50	738.00
690.83	739.00
691.16	742.00
691.48	744.00
691.81	735.00
692.14	756.00
692.47	740.00
692.80	737.00
693.12	732.00
693.45	714.00
693.78	735.00
694.11	737.00
694.44	728.00
694.76	747.00
695.09	727.00
695.42	730.00
695.75	714.00
696.07	723.00
696.40	723.00
696.73	723.00
697.06	717.00
697.38	722.00
697.71	740.00
698.04	722.00
698.37	715.00
698.69	724.00
699.02	706.00
699.35	712.00
699.67	710.00
700.00	713.00
700.33	720.00
700.66	697.00
700.98	721.00
701.31	721.00
701.64	696.00
701.96	701.00
702.29	706.00
702.62	713.00
702.94	692.00
703.27	721.00
703.60	696.00
703.92	700.00
704.25	715.00
704.58	708.00
704.90	702.00
705.23	697.00
705.56	707.00
705.88	705.00
706.21	704.00
706.53	701.00
706.86	688.00
707.19	672.00
707.51	690.00
707.84	695.00
708.16	691.00
708.49	695.00
708.82	697.00
709.14	679.00
709.47	684.00
709.79	688.00
710.12	681.00
710.45	678.00
710.77	687.00
711.10	674.00
711.42	672.00
711.75	676.00
712.07	684.00
712.40	663.00
712.72	682.00
713.05	672.00
713.37	665.00
713.70	657.00
714.03	651.00
714.35	667.00
714.68	677.00
715.00	649.00
715.33	655.00
715.65	648.00
715.98	637.00
716.30	647.00
716.63	664.00
716.95	641.00
717.28	642.00
717.60	628.00
717.92	633.00
718.25	626.00
718.57	631.00
718.90	637.00
719.22	625.00
719.55	619.00
719.87	615.00
720.20	624.00
720.52	617.00
720.84	599.00
721.17	612.00
721.49	611.00
721.82	607.00
722.14	614.00
722.47	590.00
722.79	600.00
723.11	594.00
723.44	600.00
723.76	607.00
724.09	603.00
724.41	607.00
724.73	592.00
725.06	572.00
725.38	591.00
725.70	595.00
726.03	593.00
726.35	600.00
726.67	589.00
727.00	593.00
727.32	586.00
727.65	595.00
727.97	583.00
728.29	581.00
728.61	582.00
728.94	592.00
729.26	590.00
729.58	592.00
729.91	590.00
730.23	585.00
730.55	577.00
730.88	591.00
731.20	592.00
731.52	569.00
731.84	587.00
732.17	582.00
732.49	590.00
732.81	586.00
733.14	571.00
733.46	586.00
733.78	584.00
734.10	582.00
734.43	600.00
734.75	588.00
735.07	576.00
735.39	567.00
735.72	578.00
736.04	585.00
736.36	605.00
736.68	592.00
737.00	579.00
737.33	568.00
737.65	577.00
737.97	593.00
738.29	588.00
738.61	590.00
738.94	592.00
739.26	591.00
739.58	574.00
739.90	580.00
740.22	588.00
740.54	590.00
740.87	584.00
741.19	584.00
741.51	581.00
741.83	577.00
742.15	585.00
742.47	589.00
742.79	582.00
743.12	581.00
743.44	583.00
743.76	582.00
744.08	590.00
744.40	586.00
744.72	592.00
745.04	576.00
745.36	591.00
745.68	587.00
746.00	586.00
746.33	599.00
746.65	580.00
746.97	590.00
747.29	585.00
747.61	587.00
747.93	594.00
748.25	595.00
748.57	581.00
748.89	593.00
749.21	618.00
749.53	597.00
749.85	580.00
750.17	594.00
750.49	605.00
750.81	598.00
751.13	601.00
751.45	591.00
751.77	588.00
752.09	587.00
752.41	609.00
752.73	605.00
753.05	596.00
753.37	601.00
753.69	604.00
754.01	592.00
754.33	605.00
754.65	603.00
754.97	602.00
755.29	622.00
755.61	608.00
755.93	598.00
756.25	613.00
756.57	625.00
756.89	623.00
757.21	630.00
757.53	612.00
757.84	627.00
758.16	623.00
758.48	636.00
758.80	619.00
759.12	636.00
759.44	611.00
759.76	630.00
760.08	634.00
760.40	629.00
760.71	632.00
761.03	618.00
761.35	628.00
761.67	625.00
761.99	629.00
762.31	643.00
762.63	634.00
762.94	636.00
763.26	620.00
763.58	636.00
763.90	629.00
764.22	644.00
764.54	643.00
764.85	652.00
765.17	667.00
765.49	652.00
765.81	664.00
766.13	654.00
766.44	647.00
766.76	659.00
767.08	671.00
767.40	669.00
767.72	672.00
768.03	680.00
768.35	664.00
768.67	679.00
768.99	685.00
769.30	692.00
769.62	697.00
769.94	666.00
770.26	675.00
770.57	674.00
770.89	685.00
771.21	710.00
771.53	695.00
771.84	707.00
772.16	711.00
772.48	709.00
772.79	688.00
773.11	707.00
773.43	690.00
773.75	704.00
774.06	725.00
774.38	722.00
774.70	718.00
775.01	694.00
775.33	732.00
775.65	720.00
775.96	733.00
776.28	731.00
776.59	732.00
776.91	725.00
777.23	745.00
777.54	739.00
777.86	755.00
778.18	746.00
778.49	752.00
778.81	739.00
779.13	746.00
779.44	765.00
779.76	783.00
780.07	743.00
780.39	774.00
780.71	772.00
781.02	784.00
781.34	767.00
781.65	785.00
781.97	790.00
782.28	778.00
782.60	773.00
