SpectraSuite Data File
++++++++++++++++++++++++++++++++++++
Date: Thu Jul 04 13:45:56 ART 2024
User: Javier
Dark Spectrum Present: Yes
Reference Spectrum Present: No
Number of Sampled Component Spectra: 1
Spectrometers: ADUD7991
Integration Time (usec): 30000000 (ADUD7991)
Spectra Averaged: 1 (ADUD7991)
Boxcar Smoothing: 0 (ADUD7991)
Correct for Electrical Dark: No (ADUD7991)
Strobe/Lamp Enabled: No (ADUD7991)
Correct for Detector Non-linearity: No (ADUD7991)
Correct for Stray Light: No (ADUD7991)
Number of Pixels in Processed Spectrum: 2048
>>>>>Begin Processed Spectral Data<<<<<
338.97	0.00
339.33	-6.00
339.70	2.00
340.06	-6.00
340.42	2.00
340.79	-1.00
341.15	33.00
341.52	-4.00
341.88	1.00
342.24	2.00
342.61	-4.00
342.97	0.00
343.33	-1.00
343.70	14.00
344.06	2.00
344.43	8.00
344.79	-3.00
345.15	4.00
345.52	-7.00
345.88	-6.00
346.24	-12.00
346.61	2.00
346.97	-4.00
347.33	-15.00
347.70	-3.00
348.06	3.00
348.42	-4.00
348.79	3.00
349.15	0.00
349.51	-5.00
349.88	4.00
350.24	-3.00
350.60	4.00
350.97	-2.00
351.33	-7.00
351.69	6.00
352.05	1.00
352.42	3.00
352.78	-14.00
353.14	7.00
353.51	12.00
353.87	5.00
354.23	5.00
354.60	-6.00
354.96	4.00
355.32	9.00
355.68	7.00
356.05	8.00
356.41	-2.00
356.77	4.00
357.13	15.00
357.50	5.00
357.86	-11.00
358.22	1.00
358.58	8.00
358.95	-6.00
359.31	-6.00
359.67	6.00
360.03	-3.00
360.40	-4.00
360.76	6.00
361.12	1.00
361.48	10.00
361.85	-3.00
362.21	1.00
362.57	14.00
362.93	3.00
363.29	2.00
363.66	8.00
364.02	15.00
364.38	7.00
364.74	6.00
365.10	-4.00
365.47	2.00
365.83	9.00
366.19	7.00
366.55	-4.00
366.91	2.00
367.28	4.00
367.64	13.00
368.00	-9.00
368.36	2.00
368.72	-3.00
369.08	-1.00
369.45	-9.00
369.81	1.00
370.17	13.00
370.53	0.00
370.89	-3.00
371.25	0.00
371.62	13.00
371.98	9.00
372.34	-7.00
372.70	5.00
373.06	5.00
373.42	-1.00
373.78	2.00
374.14	-3.00
374.51	4.00
374.87	0.00
375.23	-1.00
375.59	-1.00
375.95	-3.00
376.31	6.00
376.67	-3.00
377.03	-2.00
377.39	15.00
377.76	6.00
378.12	-3.00
378.48	6.00
378.84	-7.00
379.20	-5.00
379.56	0.00
379.92	17.00
380.28	2.00
380.64	9.00
381.00	6.00
381.36	-1.00
381.72	-4.00
382.08	0.00
382.45	-6.00
382.81	-2.00
383.17	-3.00
383.53	-8.00
383.89	-2.00
384.25	-3.00
384.61	-3.00
384.97	-4.00
385.33	13.00
385.69	0.00
386.05	-6.00
386.41	-3.00
386.77	4.00
387.13	7.00
387.49	7.00
387.85	0.00
388.21	18.00
388.57	-5.00
388.93	1.00
389.29	1.00
389.65	1.00
390.01	1.00
390.37	-6.00
390.73	20.00
391.09	14.00
391.45	-3.00
391.81	4.00
392.17	10.00
392.53	-3.00
392.89	11.00
393.25	-10.00
393.61	8.00
393.97	8.00
394.33	10.00
394.69	-10.00
395.05	-3.00
395.41	7.00
395.77	-4.00
396.12	8.00
396.48	1.00
396.84	-4.00
397.20	-9.00
397.56	8.00
397.92	0.00
398.28	-9.00
398.64	14.00
399.00	-3.00
399.36	5.00
399.72	6.00
400.08	-1.00
400.44	3.00
400.79	11.00
401.15	0.00
401.51	2.00
401.87	9.00
402.23	1.00
402.59	-3.00
402.95	5.00
403.31	8.00
403.67	4.00
404.02	0.00
404.38	-1.00
404.74	5.00
405.10	10.00
405.46	-5.00
405.82	1.00
406.18	9.00
406.53	-3.00
406.89	11.00
407.25	7.00
407.61	5.00
407.97	-6.00
408.33	-9.00
408.69	6.00
409.04	10.00
409.40	-4.00
409.76	1.00
410.12	3.00
410.48	-4.00
410.83	17.00
411.19	-8.00
411.55	4.00
411.91	1.00
412.27	33.00
412.63	7.00
412.98	12.00
413.34	-7.00
413.70	0.00
414.06	9.00
414.41	20.00
414.77	5.00
415.13	-1.00
415.49	2.00
415.85	6.00
416.20	8.00
416.56	-3.00
416.92	18.00
417.28	0.00
417.63	7.00
417.99	11.00
418.35	-1.00
418.71	6.00
419.06	2.00
419.42	23.00
419.78	15.00
420.14	10.00
420.49	6.00
420.85	3.00
421.21	23.00
421.57	11.00
421.92	12.00
422.28	6.00
422.64	9.00
422.99	11.00
423.35	8.00
423.71	10.00
424.06	4.00
424.42	9.00
424.78	8.00
425.14	18.00
425.49	5.00
425.85	16.00
426.21	12.00
426.56	19.00
426.92	18.00
427.28	13.00
427.63	14.00
427.99	7.00
428.35	7.00
428.70	13.00
429.06	8.00
429.42	17.00
429.77	4.00
430.13	11.00
430.49	13.00
430.84	6.00
431.20	10.00
431.55	3.00
431.91	20.00
432.27	24.00
432.62	17.00
432.98	21.00
433.34	21.00
433.69	21.00
434.05	14.00
434.40	35.00
434.76	15.00
435.12	10.00
435.47	13.00
435.83	20.00
436.18	19.00
436.54	19.00
436.90	30.00
437.25	14.00
437.61	23.00
437.96	35.00
438.32	24.00
438.67	30.00
439.03	27.00
439.39	29.00
439.74	28.00
440.10	26.00
440.45	30.00
440.81	27.00
441.16	26.00
441.52	26.00
441.87	36.00
442.23	36.00
442.59	28.00
442.94	32.00
443.30	31.00
443.65	67.00
444.01	31.00
444.36	33.00
444.72	31.00
445.07	39.00
445.43	43.00
445.78	43.00
446.14	35.00
446.49	45.00
446.85	34.00
447.20	23.00
447.56	31.00
447.91	45.00
448.27	34.00
448.62	28.00
448.98	48.00
449.33	51.00
449.69	49.00
450.04	46.00
450.39	55.00
450.75	44.00
451.10	35.00
451.46	34.00
451.81	66.00
452.17	40.00
452.52	25.00
452.88	51.00
453.23	47.00
453.58	47.00
453.94	37.00
454.29	33.00
454.65	41.00
455.00	38.00
455.36	41.00
455.71	36.00
456.06	37.00
456.42	33.00
456.77	37.00
457.13	44.00
457.48	34.00
457.83	23.00
458.19	39.00
458.54	22.00
458.90	27.00
459.25	34.00
459.60	25.00
459.96	42.00
460.31	33.00
460.66	55.00
461.02	40.00
461.37	39.00
461.73	40.00
462.08	27.00
462.43	31.00
462.79	40.00
463.14	24.00
463.49	22.00
463.85	38.00
464.20	25.00
464.55	43.00
464.91	38.00
465.26	47.00
465.61	24.00
465.97	30.00
466.32	41.00
466.67	36.00
467.03	16.00
467.38	36.00
467.73	40.00
468.08	41.00
468.44	43.00
468.79	36.00
469.14	28.00
469.50	46.00
469.85	35.00
470.20	38.00
470.55	50.00
470.91	40.00
471.26	33.00
471.61	29.00
471.97	40.00
472.32	54.00
472.67	33.00
473.02	38.00
473.38	49.00
473.73	42.00
474.08	26.00
474.43	53.00
474.78	52.00
475.14	42.00
475.49	49.00
475.84	39.00
476.19	39.00
476.55	39.00
476.90	32.00
477.25	56.00
477.60	44.00
477.95	48.00
478.31	43.00
478.66	61.00
479.01	58.00
479.36	50.00
479.71	42.00
480.07	49.00
480.42	50.00
480.77	54.00
481.12	56.00
481.47	56.00
481.82	51.00
482.18	51.00
482.53	53.00
482.88	57.00
483.23	52.00
483.58	68.00
483.93	47.00
484.29	47.00
484.64	61.00
484.99	57.00
485.34	69.00
485.69	63.00
486.04	56.00
486.39	58.00
486.74	73.00
487.10	87.00
487.45	76.00
487.80	56.00
488.15	61.00
488.50	61.00
488.85	63.00
489.20	68.00
489.55	56.00
489.90	87.00
490.26	71.00
490.61	66.00
490.96	65.00
491.31	61.00
491.66	59.00
492.01	82.00
492.36	71.00
492.71	84.00
493.06	82.00
493.41	82.00
493.76	74.00
494.11	70.00
494.46	82.00
494.81	70.00
495.16	82.00
495.51	79.00
495.86	73.00
496.21	74.00
496.56	81.00
496.91	83.00
497.27	74.00
497.62	73.00
497.97	77.00
498.32	94.00
498.67	77.00
499.02	90.00
499.37	81.00
499.72	86.00
500.07	85.00
500.42	91.00
500.77	74.00
501.11	80.00
501.46	86.00
501.81	88.00
502.16	86.00
502.51	93.00
502.86	87.00
503.21	96.00
503.56	95.00
503.91	74.00
504.26	94.00
504.61	80.00
504.96	99.00
505.31	93.00
505.66	94.00
506.01	98.00
506.36	98.00
506.71	98.00
507.06	115.00
507.41	103.00
507.75	95.00
508.10	105.00
508.45	95.00
508.80	92.00
509.15	93.00
509.50	103.00
509.85	96.00
510.20	96.00
510.55	92.00
510.90	98.00
511.24	103.00
511.59	94.00
511.94	112.00
512.29	108.00
512.64	109.00
512.99	96.00
513.34	105.00
513.68	133.00
514.03	137.00
514.38	92.00
514.73	115.00
515.08	102.00
515.43	97.00
515.77	117.00
516.12	108.00
516.47	109.00
516.82	126.00
517.17	120.00
517.52	127.00
517.86	92.00
518.21	114.00
518.56	95.00
518.91	104.00
519.26	107.00
519.60	113.00
519.95	108.00
520.30	116.00
520.65	107.00
521.00	109.00
521.34	108.00
521.69	104.00
522.04	115.00
522.39	114.00
522.73	106.00
523.08	115.00
523.43	116.00
523.78	106.00
524.12	117.00
524.47	110.00
524.82	103.00
525.17	104.00
525.51	106.00
525.86	114.00
526.21	118.00
526.56	116.00
526.90	131.00
527.25	115.00
527.60	112.00
527.94	116.00
528.29	115.00
528.64	122.00
528.99	115.00
529.33	130.00
529.68	129.00
530.03	130.00
530.37	121.00
530.72	129.00
531.07	112.00
531.41	116.00
531.76	122.00
532.11	128.00
532.45	119.00
532.80	123.00
533.15	124.00
533.49	135.00
533.84	119.00
534.19	135.00
534.53	119.00
534.88	110.00
535.23	120.00
535.57	123.00
535.92	139.00
536.26	119.00
536.61	117.00
536.96	125.00
537.30	128.00
537.65	126.00
537.99	133.00
538.34	117.00
538.69	115.00
539.03	111.00
539.38	122.00
539.72	132.00
540.07	114.00
540.42	115.00
540.76	128.00
541.11	117.00
541.45	124.00
541.80	0.00
542.14	128.00
542.49	117.00
542.84	131.00
543.18	131.00
543.53	122.00
543.87	128.00
544.22	127.00
544.56	145.00
544.91	137.00
545.25	125.00
545.60	136.00
545.94	127.00
546.29	129.00
546.63	132.00
546.98	143.00
547.32	130.00
547.67	130.00
548.01	134.00
548.36	116.00
548.70	130.00
549.05	131.00
549.39	131.00
549.74	128.00
550.08	138.00
550.43	136.00
550.77	130.00
551.12	136.00
551.46	124.00
551.81	135.00
552.15	132.00
552.50	130.00
552.84	138.00
553.18	114.00
553.53	133.00
553.87	138.00
554.22	138.00
554.56	134.00
554.91	132.00
555.25	124.00
555.59	144.00
555.94	142.00
556.28	123.00
556.63	123.00
556.97	136.00
557.32	133.00
557.66	141.00
558.00	141.00
558.35	139.00
558.69	134.00
559.03	140.00
559.38	137.00
559.72	139.00
560.07	172.00
560.41	152.00
560.75	132.00
561.10	154.00
561.44	143.00
561.78	134.00
562.13	142.00
562.47	150.00
562.81	148.00
563.16	142.00
563.50	148.00
563.84	142.00
564.19	136.00
564.53	166.00
564.87	147.00
565.22	152.00
565.56	148.00
565.90	148.00
566.25	146.00
566.59	127.00
566.93	157.00
567.28	150.00
567.62	139.00
567.96	139.00
568.30	146.00
568.65	139.00
568.99	134.00
569.33	151.00
569.68	160.00
570.02	138.00
570.36	142.00
570.70	135.00
571.05	155.00
571.39	144.00
571.73	148.00
572.07	147.00
572.42	131.00
572.76	139.00
573.10	137.00
573.44	144.00
573.78	149.00
574.13	146.00
574.47	153.00
574.81	168.00
575.15	161.00
575.49	156.00
575.84	164.00
576.18	154.00
576.52	149.00
576.86	154.00
577.20	0.00
577.55	157.00
577.89	156.00
578.23	135.00
578.57	137.00
578.91	124.00
579.25	151.00
579.60	0.00
579.94	121.00
580.28	140.00
580.62	152.00
580.96	131.00
581.30	136.00
581.65	140.00
581.99	146.00
582.33	146.00
582.67	151.00
583.01	161.00
583.35	161.00
583.69	139.00
584.03	153.00
584.37	170.00
584.72	157.00
585.06	157.00
585.40	162.00
585.74	141.00
586.08	166.00
586.42	144.00
586.76	156.00
587.10	156.00
587.44	161.00
587.78	172.00
588.12	148.00
588.46	161.00
588.80	156.00
589.15	154.00
589.49	159.00
589.83	157.00
590.17	156.00
590.51	151.00
590.85	152.00
591.19	159.00
591.53	169.00
591.87	162.00
592.21	163.00
592.55	163.00
592.89	155.00
593.23	160.00
593.57	151.00
593.91	151.00
594.25	147.00
594.59	168.00
594.93	154.00
595.27	162.00
595.61	149.00
595.95	159.00
596.29	155.00
596.63	169.00
596.97	151.00
597.31	157.00
597.65	153.00
597.99	158.00
598.32	158.00
598.66	178.00
599.00	156.00
599.34	166.00
599.68	171.00
600.02	164.00
600.36	156.00
600.70	152.00
601.04	170.00
601.38	173.00
601.72	164.00
602.06	166.00
602.40	155.00
602.73	163.00
603.07	157.00
603.41	168.00
603.75	170.00
604.09	160.00
604.43	158.00
604.77	148.00
605.11	164.00
605.45	155.00
605.78	175.00
606.12	152.00
606.46	152.00
606.80	153.00
607.14	143.00
607.48	157.00
607.81	158.00
608.15	154.00
608.49	163.00
608.83	171.00
609.17	145.00
609.51	148.00
609.84	144.00
610.18	155.00
610.52	173.00
610.86	155.00
611.20	169.00
611.53	154.00
611.87	167.00
612.21	160.00
612.55	182.00
612.89	168.00
613.22	164.00
613.56	162.00
613.90	181.00
614.24	159.00
614.57	157.00
614.91	151.00
615.25	161.00
615.59	169.00
615.92	158.00
616.26	158.00
616.60	165.00
616.94	170.00
617.27	156.00
617.61	162.00
617.95	150.00
618.29	155.00
618.62	178.00
618.96	158.00
619.30	158.00
619.63	166.00
619.97	156.00
620.31	159.00
620.64	163.00
620.98	158.00
621.32	166.00
621.66	180.00
621.99	155.00
622.33	172.00
622.67	164.00
623.00	156.00
623.34	170.00
623.68	154.00
624.01	164.00
624.35	159.00
624.68	167.00
625.02	159.00
625.36	161.00
625.69	169.00
626.03	167.00
626.37	149.00
626.70	148.00
627.04	164.00
627.37	160.00
627.71	157.00
628.05	176.00
628.38	167.00
628.72	166.00
629.05	155.00
629.39	156.00
629.73	179.00
630.06	161.00
630.40	0.00
630.73	347.00
631.07	158.00
631.41	174.00
631.74	161.00
632.08	164.00
632.41	164.00
632.75	158.00
633.08	164.00
633.42	169.00
633.75	162.00
634.09	167.00
634.42	158.00
634.76	157.00
635.09	169.00
635.43	167.00
635.76	153.00
636.10	165.00
636.43	176.00
636.77	175.00
637.10	165.00
637.44	162.00
637.77	167.00
638.11	168.00
638.44	173.00
638.78	180.00
639.11	192.00
639.45	173.00
639.78	168.00
640.12	163.00
640.45	156.00
640.79	169.00
641.12	163.00
641.46	175.00
641.79	193.00
642.12	182.00
642.46	168.00
642.79	209.00
643.13	179.00
643.46	168.00
643.80	170.00
644.13	140.00
644.46	178.00
644.80	192.00
645.13	187.00
645.47	185.00
645.80	181.00
646.13	175.00
646.47	177.00
646.80	173.00
647.13	197.00
647.47	180.00
647.80	176.00
648.14	190.00
648.47	194.00
648.80	194.00
649.14	176.00
649.47	192.00
649.80	185.00
650.14	181.00
650.47	193.00
650.80	185.00
651.14	179.00
651.47	187.00
651.80	193.00
652.14	187.00
652.47	218.00
652.80	201.00
653.14	200.00
653.47	251.00
653.80	195.00
654.13	181.00
654.47	198.00
654.80	202.00
655.13	201.00
655.47	193.00
655.80	217.00
656.13	200.00
656.46	198.00
656.80	203.00
657.13	212.00
657.46	201.00
657.79	203.00
658.13	216.00
658.46	209.00
658.79	206.00
659.12	233.00
659.45	226.00
659.79	211.00
660.12	214.00
660.45	230.00
660.78	239.00
661.12	249.00
661.45	237.00
661.78	245.00
662.11	240.00
662.44	237.00
662.77	242.00
663.11	236.00
663.44	246.00
663.77	250.00
664.10	256.00
664.43	254.00
664.77	252.00
665.10	247.00
665.43	257.00
665.76	260.00
666.09	272.00
666.42	280.00
666.75	261.00
667.08	276.00
667.42	302.00
667.75	267.00
668.08	280.00
668.41	296.00
668.74	297.00
669.07	301.00
669.40	300.00
669.73	312.00
670.06	308.00
670.40	315.00
670.73	291.00
671.06	330.00
671.39	327.00
671.72	324.00
672.05	330.00
672.38	345.00
672.71	349.00
673.04	343.00
673.37	352.00
673.70	344.00
674.03	365.00
674.36	367.00
674.69	355.00
675.02	383.00
675.35	375.00
675.68	370.00
676.01	377.00
676.34	387.00
676.67	401.00
677.00	394.00
677.33	411.00
677.66	407.00
677.99	418.00
678.32	419.00
678.65	431.00
678.98	440.00
679.31	449.00
679.64	448.00
679.97	447.00
680.30	489.00
680.63	453.00
680.96	482.00
681.29	478.00
681.62	477.00
681.95	507.00
682.28	503.00
682.61	523.00
682.94	521.00
683.27	540.00
683.60	552.00
683.93	537.00
684.25	534.00
684.58	559.00
684.91	562.00
685.24	548.00
685.57	586.00
685.90	578.00
686.23	574.00
686.56	602.00
686.89	583.00
687.21	611.00
687.54	586.00
687.87	615.00
688.20	644.00
688.53	636.00
688.86	628.00
689.19	649.00
689.51	686.00
689.84	654.00
690.17	686.00
690.50	705.00
690.83	707.00
691.16	704.00
691.48	713.00
691.81	727.00
692.14	744.00
692.47	762.00
692.80	747.00
693.12	776.00
693.45	774.00
693.78	772.00
694.11	776.00
694.44	794.00
694.76	806.00
695.09	793.00
695.42	812.00
695.75	789.00
696.07	823.00
696.40	822.00
696.73	833.00
697.06	831.00
697.38	846.00
697.71	861.00
698.04	877.00
698.37	848.00
698.69	865.00
699.02	836.00
699.35	922.00
699.67	881.00
700.00	913.00
700.33	899.00
700.66	881.00
700.98	911.00
701.31	905.00
701.64	917.00
701.96	917.00
702.29	939.00
702.62	946.00
702.94	971.00
703.27	959.00
703.60	937.00
703.92	944.00
704.25	963.00
704.58	956.00
704.90	972.00
705.23	1004.00
705.56	993.00
705.88	980.00
706.21	975.00
706.53	1020.00
706.86	990.00
707.19	1021.00
707.51	1005.00
707.84	1044.00
708.16	1011.00
708.49	1033.00
708.82	1050.00
709.14	1035.00
709.47	1037.00
709.79	1046.00
710.12	1036.00
710.45	1068.00
710.77	1037.00
711.10	1062.00
711.42	1060.00
711.75	1070.00
712.07	1044.00
712.40	1065.00
712.72	971.00
713.05	1055.00
713.37	1030.00
713.70	1075.00
714.03	1072.00
714.35	1076.00
714.68	1074.00
715.00	1079.00
715.33	1075.00
715.65	1082.00
715.98	1110.00
716.30	1089.00
716.63	1073.00
716.95	1073.00
717.28	1081.00
717.60	1072.00
717.92	1050.00
718.25	1068.00
718.57	1085.00
718.90	1060.00
719.22	1040.00
719.55	1072.00
719.87	1042.00
720.20	1043.00
720.52	1051.00
720.84	1028.00
721.17	1016.00
721.49	1064.00
721.82	1036.00
722.14	1033.00
722.47	1021.00
722.79	1027.00
723.11	1042.00
723.44	1030.00
723.76	1059.00
724.09	1021.00
724.41	1054.00
724.73	1033.00
725.06	1053.00
725.38	1062.00
725.70	1061.00
726.03	1078.00
726.35	1074.00
726.67	1037.00
727.00	1046.00
727.32	1060.00
727.65	1055.00
727.97	1060.00
728.29	1080.00
728.61	1062.00
728.94	1054.00
729.26	1007.00
729.58	1075.00
729.91	1046.00
730.23	1080.00
730.55	1041.00
730.88	1054.00
731.20	1058.00
731.52	1076.00
731.84	1032.00
732.17	1065.00
732.49	1046.00
732.81	1033.00
733.14	1063.00
733.46	1030.00
733.78	1047.00
734.10	1018.00
734.43	1029.00
734.75	1058.00
735.07	1030.00
735.39	1069.00
735.72	1044.00
736.04	1062.00
736.36	1040.00
736.68	1060.00
737.00	1031.00
737.33	1048.00
737.65	1040.00
737.97	1042.00
738.29	1061.00
738.61	1024.00
738.94	1064.00
739.26	1050.00
739.58	1008.00
739.90	1056.00
740.22	1026.00
740.54	1033.00
740.87	1076.00
741.19	1022.00
741.51	1051.00
741.83	1050.00
742.15	1032.00
742.47	1041.00
742.79	1035.00
743.12	1033.00
743.44	1057.00
743.76	1051.00
744.08	1035.00
744.40	1028.00
744.72	1035.00
745.04	1022.00
745.36	1008.00
745.68	1030.00
746.00	1031.00
746.33	1054.00
746.65	1038.00
746.97	1016.00
747.29	1007.00
747.61	1024.00
747.93	1031.00
748.25	1029.00
748.57	1017.00
748.89	1046.00
749.21	1073.00
749.53	1035.00
749.85	1059.00
750.17	1037.00
750.49	1061.00
750.81	1044.00
751.13	1064.00
751.45	1027.00
751.77	1056.00
752.09	1050.00
752.41	1029.00
752.73	1014.00
753.05	1030.00
753.37	1058.00
753.69	1042.00
754.01	1030.00
754.33	1025.00
754.65	1048.00
754.97	1013.00
755.29	1032.00
755.61	1037.00
755.93	1062.00
756.25	1005.00
756.57	1048.00
756.89	1035.00
757.21	1028.00
757.53	1027.00
757.84	1035.00
758.16	1017.00
758.48	1018.00
758.80	1013.00
759.12	1021.00
759.44	1010.00
759.76	1027.00
760.08	1029.00
760.40	1019.00
760.71	1015.00
761.03	1019.00
761.35	1017.00
761.67	1040.00
761.99	1031.00
762.31	1043.00
762.63	1012.00
762.94	1032.00
763.26	1044.00
763.58	1014.00
763.90	1029.00
764.22	1014.00
764.54	1032.00
764.85	1024.00
765.17	1018.00
765.49	1033.00
765.81	1050.00
766.13	994.00
766.44	1000.00
766.76	1005.00
767.08	1034.00
767.40	1026.00
767.72	1001.00
768.03	1013.00
768.35	976.00
768.67	1039.00
768.99	1032.00
769.30	1006.00
769.62	1017.00
769.94	1012.00
770.26	1008.00
770.57	1020.00
770.89	1042.00
771.21	998.00
771.53	1011.00
771.84	1047.00
772.16	1021.00
772.48	1011.00
772.79	1019.00
773.11	1026.00
773.43	1029.00
773.75	1047.00
774.06	1015.00
774.38	1025.00
774.70	1034.00
775.01	1012.00
775.33	1013.00
775.65	994.00
775.96	1027.00
776.28	1025.00
776.59	1000.00
776.91	1028.00
777.23	1014.00
777.54	1026.00
777.86	997.00
778.18	1009.00
778.49	1025.00
778.81	1031.00
779.13	999.00
779.44	1017.00
779.76	1026.00
780.07	1039.00
780.39	1017.00
780.71	978.00
781.02	1000.00
781.34	1025.00
781.65	1018.00
781.97	1024.00
782.28	1006.00
782.60	1017.00
782.91	997.00
783.23	985.00
783.55	1012.00
783.86	998.00
784.18	1005.00
784.49	1001.00
784.81	997.00
785.12	973.00
785.44	995.00
785.75	989.00
786.07	1015.00
786.38	961.00
786.70	1002.00
787.01	1001.00
787.33	976.00
787.64	1009.00
787.96	1005.00
788.27	998.00
