SpectraSuite Data File
++++++++++++++++++++++++++++++++++++
Date: Fri Jul 12 17:11:22 ART 2024
User: Javier
Dark Spectrum Present: Yes
Reference Spectrum Present: No
Number of Sampled Component Spectra: 1
Spectrometers: ADUD7991
Integration Time (usec): 15000 (ADUD7991)
Spectra Averaged: 1 (ADUD7991)
Boxcar Smoothing: 0 (ADUD7991)
Correct for Electrical Dark: No (ADUD7991)
Strobe/Lamp Enabled: No (ADUD7991)
Correct for Detector Non-linearity: No (ADUD7991)
Correct for Stray Light: No (ADUD7991)
Number of Pixels in Processed Spectrum: 2048
>>>>>Begin Processed Spectral Data<<<<<
338.97	0.00
339.33	-1.00
339.70	6.00
340.06	-1.00
340.42	-1.00
340.79	-6.00
341.15	-2.00
341.52	2.00
341.88	3.00
342.24	4.00
342.61	1.00
342.97	4.00
343.33	-1.00
343.70	-2.00
344.06	2.00
344.43	3.00
344.79	0.00
345.15	-4.00
345.52	-2.00
345.88	-6.00
346.24	1.00
346.61	7.00
346.97	6.00
347.33	-1.00
347.70	-1.00
348.06	-4.00
348.42	-5.00
348.79	4.00
349.15	3.00
349.51	4.00
349.88	8.00
350.24	-3.00
350.60	7.00
350.97	1.00
351.33	4.00
351.69	7.00
352.05	0.00
352.42	5.00
352.78	5.00
353.14	-2.00
353.51	-3.00
353.87	-3.00
354.23	-2.00
354.60	2.00
354.96	8.00
355.32	6.00
355.68	-3.00
356.05	6.00
356.41	6.00
356.77	3.00
357.13	-5.00
357.50	-4.00
357.86	5.00
358.22	-3.00
358.58	1.00
358.95	2.00
359.31	-6.00
359.67	-3.00
360.03	-3.00
360.40	9.00
360.76	0.00
361.12	2.00
361.48	-6.00
361.85	1.00
362.21	-3.00
362.57	2.00
362.93	-5.00
363.29	-4.00
363.66	4.00
364.02	1.00
364.38	2.00
364.74	-4.00
365.10	-1.00
365.47	1.00
365.83	4.00
366.19	-1.00
366.55	1.00
366.91	8.00
367.28	11.00
367.64	-4.00
368.00	1.00
368.36	4.00
368.72	-2.00
369.08	0.00
369.45	-2.00
369.81	10.00
370.17	4.00
370.53	0.00
370.89	6.00
371.25	-2.00
371.62	1.00
371.98	3.00
372.34	-4.00
372.70	3.00
373.06	10.00
373.42	2.00
373.78	8.00
374.14	1.00
374.51	-6.00
374.87	5.00
375.23	-2.00
375.59	1.00
375.95	9.00
376.31	4.00
376.67	-3.00
377.03	2.00
377.39	-8.00
377.76	-3.00
378.12	-1.00
378.48	4.00
378.84	6.00
379.20	-3.00
379.56	-2.00
379.92	1.00
380.28	-5.00
380.64	-2.00
381.00	-2.00
381.36	-3.00
381.72	2.00
382.08	-6.00
382.45	9.00
382.81	-2.00
383.17	3.00
383.53	4.00
383.89	2.00
384.25	3.00
384.61	-3.00
384.97	9.00
385.33	4.00
385.69	0.00
386.05	1.00
386.41	3.00
386.77	8.00
387.13	9.00
387.49	-1.00
387.85	4.00
388.21	1.00
388.57	-1.00
388.93	0.00
389.29	7.00
389.65	8.00
390.01	2.00
390.37	3.00
390.73	10.00
391.09	6.00
391.45	10.00
391.81	1.00
392.17	2.00
392.53	5.00
392.89	11.00
393.25	7.00
393.61	7.00
393.97	10.00
394.33	5.00
394.69	-2.00
395.05	4.00
395.41	12.00
395.77	15.00
396.12	6.00
396.48	16.00
396.84	11.00
397.20	11.00
397.56	14.00
397.92	13.00
398.28	14.00
398.64	8.00
399.00	14.00
399.36	12.00
399.72	19.00
400.08	19.00
400.44	24.00
400.79	17.00
401.15	22.00
401.51	19.00
401.87	23.00
402.23	21.00
402.59	18.00
402.95	15.00
403.31	28.00
403.67	33.00
404.02	24.00
404.38	27.00
404.74	29.00
405.10	31.00
405.46	34.00
405.82	35.00
406.18	31.00
406.53	38.00
406.89	31.00
407.25	35.00
407.61	34.00
407.97	50.00
408.33	43.00
408.69	43.00
409.04	40.00
409.40	47.00
409.76	45.00
410.12	49.00
410.48	47.00
410.83	49.00
411.19	57.00
411.55	52.00
411.91	50.00
412.27	64.00
412.63	62.00
412.98	58.00
413.34	63.00
413.70	62.00
414.06	55.00
414.41	66.00
414.77	72.00
415.13	58.00
415.49	64.00
415.85	73.00
416.20	64.00
416.56	66.00
416.92	75.00
417.28	77.00
417.63	82.00
417.99	81.00
418.35	82.00
418.71	88.00
419.06	82.00
419.42	86.00
419.78	88.00
420.14	84.00
420.49	92.00
420.85	95.00
421.21	93.00
421.57	104.00
421.92	95.00
422.28	90.00
422.64	96.00
422.99	110.00
423.35	109.00
423.71	108.00
424.06	109.00
424.42	117.00
424.78	116.00
425.14	108.00
425.49	125.00
425.85	112.00
426.21	132.00
426.56	115.00
426.92	123.00
427.28	125.00
427.63	130.00
427.99	129.00
428.35	141.00
428.70	140.00
429.06	129.00
429.42	140.00
429.77	136.00
430.13	142.00
430.49	142.00
430.84	156.00
431.20	154.00
431.55	148.00
431.91	162.00
432.27	155.00
432.62	153.00
432.98	161.00
433.34	169.00
433.69	173.00
434.05	171.00
434.40	167.00
434.76	176.00
435.12	174.00
435.47	178.00
435.83	184.00
436.18	192.00
436.54	189.00
436.90	201.00
437.25	198.00
437.61	196.00
437.96	195.00
438.32	202.00
438.67	210.00
439.03	215.00
439.39	206.00
439.74	211.00
440.10	212.00
440.45	232.00
440.81	212.00
441.16	227.00
441.52	236.00
441.87	241.00
442.23	232.00
442.59	232.00
442.94	235.00
443.30	248.00
443.65	243.00
444.01	256.00
444.36	256.00
444.72	251.00
445.07	270.00
445.43	264.00
445.78	250.00
446.14	268.00
446.49	267.00
446.85	260.00
447.20	268.00
447.56	268.00
447.91	274.00
448.27	286.00
448.62	294.00
448.98	277.00
449.33	271.00
449.69	293.00
450.04	323.00
450.39	300.00
450.75	299.00
451.10	318.00
451.46	312.00
451.81	314.00
452.17	311.00
452.52	328.00
452.88	328.00
453.23	326.00
453.58	327.00
453.94	353.00
454.29	327.00
454.65	337.00
455.00	343.00
455.36	345.00
455.71	352.00
456.06	343.00
456.42	353.00
456.77	353.00
457.13	377.00
457.48	369.00
457.83	362.00
458.19	363.00
458.54	373.00
458.90	350.00
459.25	401.00
459.60	390.00
459.96	384.00
460.31	394.00
460.66	392.00
461.02	394.00
461.37	404.00
461.73	406.00
462.08	409.00
462.43	399.00
462.79	420.00
463.14	403.00
463.49	418.00
463.85	408.00
464.20	430.00
464.55	434.00
464.91	441.00
465.26	448.00
465.61	451.00
465.97	450.00
466.32	446.00
466.67	450.00
467.03	469.00
467.38	467.00
467.73	464.00
468.08	494.00
468.44	483.00
468.79	483.00
469.14	467.00
469.50	505.00
469.85	512.00
470.20	517.00
470.55	513.00
470.91	528.00
471.26	529.00
471.61	531.00
471.97	525.00
472.32	558.00
472.67	548.00
473.02	565.00
473.38	561.00
473.73	584.00
474.08	581.00
474.43	601.00
474.78	604.00
475.14	597.00
475.49	609.00
475.84	634.00
476.19	618.00
476.55	640.00
476.90	629.00
477.25	659.00
477.60	656.00
477.95	662.00
478.31	683.00
478.66	683.00
479.01	691.00
479.36	702.00
479.71	712.00
480.07	717.00
480.42	724.00
480.77	734.00
481.12	755.00
481.47	748.00
481.82	762.00
482.18	755.00
482.53	778.00
482.88	788.00
483.23	794.00
483.58	783.00
483.93	813.00
484.29	811.00
484.64	834.00
484.99	836.00
485.34	844.00
485.69	848.00
486.04	869.00
486.39	875.00
486.74	872.00
487.10	892.00
487.45	895.00
487.80	908.00
488.15	917.00
488.50	922.00
488.85	911.00
489.20	920.00
489.55	949.00
489.90	957.00
490.26	948.00
490.61	981.00
490.96	967.00
491.31	965.00
491.66	986.00
492.01	988.00
492.36	997.00
492.71	998.00
493.06	1028.00
493.41	1044.00
493.76	1022.00
494.11	1025.00
494.46	1044.00
494.81	1049.00
495.16	1065.00
495.51	1079.00
495.86	1066.00
496.21	1062.00
496.56	1079.00
496.91	1076.00
497.27	1109.00
497.62	1092.00
497.97	1116.00
498.32	1116.00
498.67	1130.00
499.02	1108.00
499.37	1125.00
499.72	1146.00
500.07	1163.00
500.42	1151.00
500.77	1175.00
501.11	1170.00
501.46	1168.00
501.81	1177.00
502.16	1183.00
502.51	1193.00
502.86	1202.00
503.21	1206.00
503.56	1225.00
503.91	1223.00
504.26	1218.00
504.61	1224.00
504.96	1257.00
505.31	1237.00
505.66	1258.00
506.01	1274.00
506.36	1270.00
506.71	1260.00
507.06	1287.00
507.41	1284.00
507.75	1302.00
508.10	1302.00
508.45	1291.00
508.80	1301.00
509.15	1334.00
509.50	1315.00
509.85	1356.00
510.20	1342.00
510.55	1333.00
510.90	1332.00
511.24	1354.00
511.59	1375.00
511.94	1381.00
512.29	1385.00
512.64	1344.00
512.99	1389.00
513.34	1406.00
513.68	1406.00
514.03	1415.00
514.38	1412.00
514.73	1430.00
515.08	1424.00
515.43	1431.00
515.77	1464.00
516.12	1470.00
516.47	1469.00
516.82	1470.00
517.17	1463.00
517.52	1481.00
517.86	1481.00
518.21	1488.00
518.56	1477.00
518.91	1510.00
519.26	1529.00
519.60	1511.00
519.95	1542.00
520.30	1561.00
520.65	1556.00
521.00	1551.00
521.34	1546.00
521.69	1560.00
522.04	1570.00
522.39	1576.00
522.73	1564.00
523.08	1578.00
523.43	1611.00
523.78	1605.00
524.12	1588.00
524.47	1615.00
524.82	1623.00
525.17	1609.00
525.51	1629.00
525.86	1627.00
526.21	1626.00
526.56	1636.00
526.90	1638.00
527.25	1663.00
527.60	1693.00
527.94	1675.00
528.29	1647.00
528.64	1673.00
528.99	1663.00
529.33	1704.00
529.68	1715.00
530.03	1714.00
530.37	1725.00
530.72	1705.00
531.07	1742.00
531.41	1731.00
531.76	1725.00
532.11	1740.00
532.45	1741.00
532.80	1739.00
533.15	1750.00
533.49	1785.00
533.84	1777.00
534.19	1732.00
534.53	1756.00
534.88	1797.00
535.23	1808.00
535.57	1791.00
535.92	1795.00
536.26	1820.00
536.61	1811.00
536.96	1810.00
537.30	1829.00
537.65	1818.00
537.99	1832.00
538.34	1813.00
538.69	1858.00
539.03	1839.00
539.38	1864.00
539.72	1861.00
540.07	1866.00
540.42	1897.00
540.76	1887.00
541.11	1879.00
541.45	1883.00
541.80	1885.00
542.14	1900.00
542.49	1906.00
542.84	1936.00
543.18	1919.00
543.53	1928.00
543.87	1918.00
544.22	1911.00
544.56	1916.00
544.91	1950.00
545.25	1958.00
545.60	1961.00
545.94	1946.00
546.29	1977.00
546.63	1978.00
546.98	1988.00
547.32	2002.00
547.67	1997.00
548.01	1984.00
548.36	1993.00
548.70	2015.00
549.05	2008.00
549.39	2016.00
549.74	2000.00
550.08	2001.00
550.43	2035.00
550.77	2039.00
551.12	2038.00
551.46	2044.00
551.81	2082.00
552.15	2058.00
552.50	2075.00
552.84	2065.00
553.18	2093.00
553.53	2094.00
553.87	2108.00
554.22	2077.00
554.56	2095.00
554.91	2096.00
555.25	2106.00
555.59	2121.00
555.94	2076.00
556.28	2162.00
556.63	2117.00
556.97	2120.00
557.32	2138.00
557.66	2134.00
558.00	2133.00
558.35	2150.00
558.69	2163.00
559.03	2165.00
559.38	2201.00
559.72	2191.00
560.07	2190.00
560.41	2154.00
560.75	2181.00
561.10	2180.00
561.44	2172.00
561.78	2201.00
562.13	2196.00
562.47	2216.00
562.81	2198.00
563.16	2226.00
563.50	2241.00
563.84	2227.00
564.19	2219.00
564.53	2215.00
564.87	2241.00
565.22	2268.00
565.56	2226.00
565.90	2257.00
566.25	2259.00
566.59	2275.00
566.93	2299.00
567.28	2258.00
567.62	2276.00
567.96	2303.00
568.30	2286.00
568.65	2317.00
568.99	2292.00
569.33	2330.00
569.68	2290.00
570.02	2329.00
570.36	2322.00
570.70	2333.00
571.05	2330.00
571.39	2357.00
571.73	2350.00
572.07	2311.00
572.42	2352.00
572.76	2362.00
573.10	2332.00
573.44	2355.00
573.78	2358.00
574.13	2329.00
574.47	2354.00
574.81	2340.00
575.15	2358.00
575.49	2394.00
575.84	2376.00
576.18	2372.00
576.52	2360.00
576.86	2374.00
577.20	2353.00
577.55	2322.00
577.89	2309.00
578.23	2314.00
578.57	2306.00
578.91	2283.00
579.25	2304.00
579.60	2221.00
579.94	2294.00
580.28	2289.00
580.62	2310.00
580.96	2314.00
581.30	2334.00
581.65	2346.00
581.99	2348.00
582.33	2397.00
582.67	2401.00
583.01	2434.00
583.35	2502.00
583.69	2451.00
584.03	2475.00
584.37	2446.00
584.72	2452.00
585.06	2453.00
585.40	2502.00
585.74	2479.00
586.08	2468.00
586.42	2468.00
586.76	2491.00
587.10	2456.00
587.44	2494.00
587.78	2483.00
588.12	2488.00
588.46	2481.00
588.80	2475.00
589.15	2523.00
589.49	2490.00
589.83	2495.00
590.17	2497.00
590.51	2502.00
590.85	2495.00
591.19	2506.00
591.53	2496.00
591.87	2544.00
592.21	2507.00
592.55	2502.00
592.89	2529.00
593.23	2515.00
593.57	2506.00
593.91	2489.00
594.25	2519.00
594.59	2521.00
594.93	2494.00
595.27	2537.00
595.61	2502.00
595.95	2515.00
596.29	2503.00
596.63	2541.00
596.97	2507.00
597.31	2539.00
597.65	2539.00
597.99	2582.00
598.32	2556.00
598.66	2515.00
599.00	2534.00
599.34	2557.00
599.68	2532.00
600.02	2547.00
600.36	2588.00
600.70	2578.00
601.04	2546.00
601.38	2561.00
601.72	2556.00
602.06	2589.00
602.40	2573.00
602.73	2578.00
603.07	2589.00
603.41	2544.00
603.75	2585.00
604.09	2602.00
604.43	2585.00
604.77	2580.00
605.11	2608.00
605.45	2572.00
605.78	2599.00
606.12	2608.00
606.46	2580.00
606.80	2616.00
607.14	2625.00
607.48	2617.00
607.81	2581.00
608.15	2626.00
608.49	2597.00
608.83	2617.00
609.17	2636.00
609.51	2613.00
609.84	2646.00
610.18	2617.00
610.52	2641.00
610.86	2674.00
611.20	2650.00
611.53	2647.00
611.87	2655.00
612.21	2682.00
612.55	2641.00
612.89	2650.00
613.22	2633.00
613.56	2643.00
613.90	2673.00
614.24	2662.00
614.57	2664.00
614.91	2711.00
615.25	2651.00
615.59	2692.00
615.92	2658.00
616.26	2676.00
616.60	2672.00
616.94	2692.00
617.27	2700.00
617.61	2733.00
617.95	2677.00
618.29	2654.00
618.62	2695.00
618.96	2680.00
619.30	2665.00
619.63	2705.00
619.97	2700.00
620.31	2675.00
620.64	2714.00
620.98	2690.00
621.32	2693.00
621.66	2709.00
621.99	2702.00
622.33	2699.00
622.67	2707.00
623.00	2688.00
623.34	2729.00
623.68	2705.00
624.01	2729.00
624.35	2705.00
624.68	2748.00
625.02	2716.00
625.36	2713.00
625.69	2709.00
626.03	2731.00
626.37	2724.00
626.70	2715.00
627.04	2730.00
627.37	2770.00
627.71	2712.00
628.05	2725.00
628.38	2736.00
628.72	2743.00
629.05	2768.00
629.39	2746.00
629.73	2728.00
630.06	2786.00
630.40	2732.00
630.73	2719.00
631.07	2756.00
631.41	2758.00
631.74	2776.00
632.08	2758.00
632.41	2735.00
632.75	2746.00
633.08	2734.00
633.42	2753.00
633.75	2756.00
634.09	2726.00
634.42	2728.00
634.76	2746.00
635.09	2742.00
635.43	2754.00
635.76	2737.00
636.10	2724.00
636.43	2750.00
636.77	2757.00
637.10	2718.00
637.44	2740.00
637.77	2734.00
638.11	2740.00
638.44	2745.00
638.78	2742.00
639.11	2724.00
639.45	2729.00
639.78	2719.00
640.12	2748.00
640.45	2745.00
640.79	2734.00
641.12	2704.00
641.46	2721.00
641.79	2732.00
642.12	2679.00
642.46	2719.00
642.79	2745.00
643.13	2702.00
643.46	2734.00
643.80	2746.00
644.13	2711.00
644.46	2718.00
644.80	2717.00
645.13	2711.00
645.47	2691.00
645.80	2706.00
646.13	2682.00
646.47	2737.00
646.80	2682.00
647.13	2730.00
647.47	2694.00
647.80	2644.00
648.14	2707.00
648.47	2674.00
648.80	2700.00
649.14	2688.00
649.47	2695.00
649.80	2669.00
650.14	2726.00
650.47	2712.00
650.80	2683.00
651.14	2663.00
651.47	2699.00
651.80	2657.00
652.14	2654.00
652.47	2660.00
652.80	2686.00
653.14	2681.00
653.47	2652.00
653.80	2650.00
654.13	2665.00
654.47	2652.00
654.80	2655.00
655.13	2650.00
655.47	2647.00
655.80	2654.00
656.13	2668.00
656.46	2658.00
656.80	2670.00
657.13	2640.00
657.46	2644.00
657.79	2639.00
658.13	2620.00
658.46	2626.00
658.79	2610.00
659.12	2655.00
659.45	2617.00
659.79	2610.00
660.12	2621.00
660.45	2637.00
660.78	2612.00
661.12	2615.00
661.45	2628.00
661.78	2617.00
662.11	2638.00
662.44	2564.00
662.77	2592.00
663.11	2616.00
663.44	2603.00
663.77	2610.00
664.10	2623.00
664.43	2604.00
664.77	2566.00
665.10	2586.00
665.43	2552.00
665.76	2572.00
666.09	2613.00
666.42	2577.00
666.75	2563.00
667.08	2577.00
667.42	2578.00
667.75	2554.00
668.08	2579.00
668.41	2598.00
668.74	2574.00
669.07	2569.00
669.40	2561.00
669.73	2558.00
670.06	2581.00
670.40	2557.00
670.73	2569.00
671.06	2551.00
671.39	2581.00
671.72	2554.00
672.05	2564.00
672.38	2541.00
672.71	2593.00
673.04	2547.00
673.37	2546.00
673.70	2543.00
674.03	2526.00
674.36	2531.00
674.69	2528.00
675.02	2557.00
675.35	2527.00
675.68	2550.00
676.01	2554.00
676.34	2525.00
676.67	2559.00
677.00	2545.00
677.33	2519.00
677.66	2523.00
677.99	2502.00
678.32	2534.00
678.65	2532.00
678.98	2524.00
679.31	2522.00
679.64	2509.00
679.97	2525.00
680.30	2535.00
680.63	2501.00
680.96	2497.00
681.29	2507.00
681.62	2478.00
681.95	2518.00
682.28	2486.00
682.61	2501.00
682.94	2482.00
683.27	2476.00
683.60	2475.00
683.93	2485.00
684.25	2504.00
684.58	2491.00
684.91	2494.00
685.24	2499.00
685.57	2479.00
685.90	2478.00
686.23	2487.00
686.56	2457.00
686.89	2450.00
687.21	2466.00
687.54	2495.00
687.87	2499.00
688.20	2469.00
688.53	2475.00
688.86	2450.00
689.19	2466.00
689.51	2478.00
689.84	2449.00
690.17	2443.00
690.50	2444.00
690.83	2477.00
691.16	2465.00
691.48	2436.00
691.81	2425.00
692.14	2430.00
692.47	2420.00
692.80	2402.00
693.12	2419.00
693.45	2415.00
693.78	2453.00
694.11	2435.00
694.44	2408.00
694.76	2444.00
695.09	2398.00
695.42	2408.00
695.75	2397.00
696.07	2400.00
696.40	2392.00
696.73	2384.00
697.06	2398.00
697.38	2400.00
697.71	2409.00
698.04	2367.00
698.37	2360.00
698.69	2402.00
699.02	2363.00
699.35	2393.00
699.67	2342.00
700.00	2363.00
700.33	2353.00
700.66	2368.00
700.98	2329.00
701.31	2345.00
701.64	2327.00
701.96	2337.00
702.29	2359.00
702.62	2354.00
702.94	2322.00
703.27	2317.00
703.60	2303.00
703.92	2306.00
704.25	2336.00
704.58	2286.00
704.90	2277.00
705.23	2311.00
705.56	2277.00
705.88	2253.00
706.21	2287.00
706.53	2265.00
706.86	2217.00
707.19	2232.00
707.51	2239.00
707.84	2225.00
708.16	2227.00
708.49	2242.00
708.82	2221.00
709.14	2212.00
709.47	2230.00
709.79	2202.00
710.12	2217.00
710.45	2207.00
710.77	2198.00
711.10	2177.00
711.42	2205.00
711.75	2171.00
712.07	2146.00
712.40	2169.00
712.72	2166.00
713.05	2094.00
713.37	2147.00
713.70	2131.00
714.03	2121.00
714.35	2118.00
714.68	2098.00
715.00	2096.00
715.33	2100.00
715.65	2080.00
715.98	2084.00
716.30	2073.00
716.63	2074.00
716.95	2027.00
717.28	2052.00
717.60	2047.00
717.92	2047.00
718.25	1979.00
718.57	2003.00
718.90	2015.00
719.22	1980.00
719.55	1986.00
719.87	1946.00
720.20	1951.00
720.52	1943.00
720.84	1950.00
721.17	1922.00
721.49	1918.00
721.82	1905.00
722.14	1901.00
722.47	1937.00
722.79	1882.00
723.11	1908.00
723.44	1874.00
723.76	1875.00
724.09	1866.00
724.41	1856.00
724.73	1860.00
725.06	1826.00
725.38	1874.00
725.70	1867.00
726.03	1851.00
726.35	1859.00
726.67	1811.00
727.00	1809.00
727.32	1824.00
727.65	1792.00
727.97	1800.00
728.29	1791.00
728.61	1805.00
728.94	1795.00
729.26	1804.00
729.58	1813.00
729.91	1793.00
730.23	1815.00
730.55	1780.00
730.88	1809.00
731.20	1798.00
731.52	1779.00
731.84	1766.00
732.17	1796.00
732.49	1774.00
732.81	1787.00
733.14	1777.00
733.46	1761.00
733.78	1774.00
734.10	1775.00
734.43	1745.00
734.75	1741.00
735.07	1750.00
735.39	1750.00
735.72	1741.00
736.04	1736.00
736.36	1749.00
736.68	1753.00
737.00	1755.00
737.33	1787.00
737.65	1753.00
737.97	1747.00
738.29	1753.00
738.61	1736.00
738.94	1741.00
739.26	1697.00
739.58	1722.00
739.90	1731.00
740.22	1738.00
740.54	1716.00
740.87	1729.00
741.19	1707.00
741.51	1727.00
741.83	1694.00
742.15	1683.00
742.47	1692.00
742.79	1725.00
743.12	1677.00
743.44	1676.00
743.76	1668.00
744.08	1675.00
744.40	1683.00
744.72	1700.00
745.04	1671.00
745.36	1686.00
745.68	1685.00
746.00	1661.00
746.33	1674.00
746.65	1668.00
746.97	1663.00
747.29	1664.00
747.61	1678.00
747.93	1664.00
748.25	1674.00
748.57	1656.00
748.89	1647.00
749.21	1662.00
749.53	1660.00
749.85	1652.00
750.17	1623.00
750.49	1639.00
750.81	1626.00
751.13	1640.00
751.45	1637.00
751.77	1633.00
752.09	1618.00
752.41	1654.00
752.73	1617.00
753.05	1636.00
753.37	1609.00
753.69	1617.00
754.01	1613.00
754.33	1609.00
754.65	1620.00
754.97	1604.00
755.29	1614.00
755.61	1595.00
755.93	1611.00
756.25	1607.00
756.57	1580.00
756.89	1612.00
757.21	1611.00
757.53	1605.00
757.84	1590.00
758.16	1592.00
758.48	1592.00
758.80	1580.00
759.12	1601.00
759.44	1610.00
759.76	1582.00
760.08	1572.00
760.40	1586.00
760.71	1587.00
761.03	1571.00
761.35	1562.00
761.67	1587.00
761.99	1547.00
762.31	1547.00
762.63	1532.00
762.94	1549.00
763.26	1565.00
763.58	1536.00
763.90	1533.00
764.22	1541.00
764.54	1552.00
764.85	1539.00
765.17	1564.00
765.49	1539.00
765.81	1534.00
766.13	1531.00
766.44	1513.00
766.76	1520.00
767.08	1526.00
767.40	1526.00
767.72	1533.00
768.03	1531.00
768.35	1536.00
768.67	1514.00
768.99	1514.00
769.30	1527.00
769.62	1495.00
769.94	1487.00
