SpectraSuite Data File
++++++++++++++++++++++++++++++++++++
Date: Fri Jul 12 17:35:59 ART 2024
User: Javier
Dark Spectrum Present: Yes
Reference Spectrum Present: No
Number of Sampled Component Spectra: 1
Spectrometers: ADUD7991
Integration Time (usec): 80000 (ADUD7991)
Spectra Averaged: 1 (ADUD7991)
Boxcar Smoothing: 0 (ADUD7991)
Correct for Electrical Dark: No (ADUD7991)
Strobe/Lamp Enabled: No (ADUD7991)
Correct for Detector Non-linearity: No (ADUD7991)
Correct for Stray Light: No (ADUD7991)
Number of Pixels in Processed Spectrum: 2048
>>>>>Begin Processed Spectral Data<<<<<
338.97	0.00
339.33	6.00
339.70	0.00
340.06	2.00
340.42	0.00
340.79	1.00
341.15	5.00
341.52	0.00
341.88	5.00
342.24	2.00
342.61	-3.00
342.97	0.00
343.33	3.00
343.70	3.00
344.06	0.00
344.43	0.00
344.79	-1.00
345.15	-1.00
345.52	-8.00
345.88	-6.00
346.24	-2.00
346.61	-5.00
346.97	-1.00
347.33	-3.00
347.70	6.00
348.06	2.00
348.42	8.00
348.79	4.00
349.15	6.00
349.51	1.00
349.88	4.00
350.24	5.00
350.60	-1.00
350.97	5.00
351.33	2.00
351.69	2.00
352.05	0.00
352.42	9.00
352.78	2.00
353.14	-1.00
353.51	2.00
353.87	10.00
354.23	1.00
354.60	1.00
354.96	-2.00
355.32	2.00
355.68	3.00
356.05	0.00
356.41	12.00
356.77	6.00
357.13	-2.00
357.50	4.00
357.86	4.00
358.22	1.00
358.58	-3.00
358.95	0.00
359.31	1.00
359.67	1.00
360.03	6.00
360.40	-1.00
360.76	6.00
361.12	2.00
361.48	6.00
361.85	6.00
362.21	-1.00
362.57	0.00
362.93	7.00
363.29	0.00
363.66	4.00
364.02	2.00
364.38	2.00
364.74	-1.00
365.10	4.00
365.47	3.00
365.83	1.00
366.19	-3.00
366.55	2.00
366.91	3.00
367.28	1.00
367.64	3.00
368.00	2.00
368.36	3.00
368.72	4.00
369.08	5.00
369.45	5.00
369.81	4.00
370.17	1.00
370.53	4.00
370.89	4.00
371.25	6.00
371.62	-2.00
371.98	1.00
372.34	-1.00
372.70	-3.00
373.06	-2.00
373.42	6.00
373.78	-1.00
374.14	2.00
374.51	7.00
374.87	9.00
375.23	7.00
375.59	5.00
375.95	4.00
376.31	2.00
376.67	2.00
377.03	3.00
377.39	5.00
377.76	9.00
378.12	-1.00
378.48	6.00
378.84	4.00
379.20	11.00
379.56	4.00
379.92	-2.00
380.28	3.00
380.64	4.00
381.00	1.00
381.36	7.00
381.72	6.00
382.08	3.00
382.45	2.00
382.81	2.00
383.17	-4.00
383.53	0.00
383.89	4.00
384.25	8.00
384.61	-4.00
384.97	6.00
385.33	6.00
385.69	4.00
386.05	3.00
386.41	-1.00
386.77	18.00
387.13	3.00
387.49	-3.00
387.85	5.00
388.21	-4.00
388.57	-1.00
388.93	-1.00
389.29	9.00
389.65	-2.00
390.01	3.00
390.37	3.00
390.73	2.00
391.09	5.00
391.45	5.00
391.81	7.00
392.17	8.00
392.53	7.00
392.89	1.00
393.25	12.00
393.61	3.00
393.97	8.00
394.33	4.00
394.69	9.00
395.05	8.00
395.41	17.00
395.77	16.00
396.12	17.00
396.48	13.00
396.84	21.00
397.20	14.00
397.56	14.00
397.92	10.00
398.28	18.00
398.64	23.00
399.00	15.00
399.36	20.00
399.72	20.00
400.08	19.00
400.44	22.00
400.79	20.00
401.15	26.00
401.51	20.00
401.87	17.00
402.23	23.00
402.59	22.00
402.95	29.00
403.31	31.00
403.67	31.00
404.02	22.00
404.38	27.00
404.74	32.00
405.10	30.00
405.46	36.00
405.82	37.00
406.18	38.00
406.53	22.00
406.89	42.00
407.25	41.00
407.61	46.00
407.97	41.00
408.33	45.00
408.69	49.00
409.04	44.00
409.40	50.00
409.76	46.00
410.12	53.00
410.48	53.00
410.83	63.00
411.19	61.00
411.55	59.00
411.91	62.00
412.27	65.00
412.63	72.00
412.98	62.00
413.34	67.00
413.70	60.00
414.06	73.00
414.41	73.00
414.77	77.00
415.13	64.00
415.49	71.00
415.85	77.00
416.20	69.00
416.56	83.00
416.92	76.00
417.28	79.00
417.63	83.00
417.99	83.00
418.35	96.00
418.71	88.00
419.06	104.00
419.42	99.00
419.78	93.00
420.14	99.00
420.49	103.00
420.85	97.00
421.21	98.00
421.57	120.00
421.92	101.00
422.28	104.00
422.64	113.00
422.99	115.00
423.35	112.00
423.71	120.00
424.06	117.00
424.42	121.00
424.78	131.00
425.14	131.00
425.49	138.00
425.85	126.00
426.21	130.00
426.56	130.00
426.92	132.00
427.28	138.00
427.63	153.00
427.99	148.00
428.35	150.00
428.70	163.00
429.06	153.00
429.42	163.00
429.77	157.00
430.13	166.00
430.49	156.00
430.84	162.00
431.20	169.00
431.55	178.00
431.91	162.00
432.27	159.00
432.62	164.00
432.98	164.00
433.34	185.00
433.69	176.00
434.05	179.00
434.40	185.00
434.76	191.00
435.12	190.00
435.47	182.00
435.83	195.00
436.18	204.00
436.54	196.00
436.90	200.00
437.25	206.00
437.61	200.00
437.96	212.00
438.32	223.00
438.67	219.00
439.03	217.00
439.39	220.00
439.74	238.00
440.10	227.00
440.45	252.00
440.81	245.00
441.16	232.00
441.52	238.00
441.87	244.00
442.23	260.00
442.59	250.00
442.94	258.00
443.30	253.00
443.65	253.00
444.01	264.00
444.36	265.00
444.72	273.00
445.07	273.00
445.43	276.00
445.78	292.00
446.14	290.00
446.49	299.00
446.85	284.00
447.20	289.00
447.56	291.00
447.91	298.00
448.27	303.00
448.62	312.00
448.98	310.00
449.33	309.00
449.69	329.00
450.04	331.00
450.39	333.00
450.75	328.00
451.10	336.00
451.46	326.00
451.81	357.00
452.17	341.00
452.52	336.00
452.88	346.00
453.23	348.00
453.58	342.00
453.94	369.00
454.29	345.00
454.65	349.00
455.00	378.00
455.36	377.00
455.71	377.00
456.06	368.00
456.42	359.00
456.77	367.00
457.13	379.00
457.48	392.00
457.83	393.00
458.19	412.00
458.54	397.00
458.90	392.00
459.25	412.00
459.60	414.00
459.96	415.00
460.31	414.00
460.66	418.00
461.02	418.00
461.37	424.00
461.73	432.00
462.08	419.00
462.43	452.00
462.79	425.00
463.14	435.00
463.49	433.00
463.85	462.00
464.20	464.00
464.55	478.00
464.91	475.00
465.26	475.00
465.61	481.00
465.97	470.00
466.32	467.00
466.67	495.00
467.03	493.00
467.38	494.00
467.73	522.00
468.08	494.00
468.44	508.00
468.79	498.00
469.14	526.00
469.50	529.00
469.85	541.00
470.20	541.00
470.55	560.00
470.91	547.00
471.26	564.00
471.61	558.00
471.97	579.00
472.32	589.00
472.67	580.00
473.02	605.00
473.38	604.00
473.73	606.00
474.08	620.00
474.43	624.00
474.78	637.00
475.14	623.00
475.49	635.00
475.84	666.00
476.19	670.00
476.55	674.00
476.90	681.00
477.25	668.00
477.60	690.00
477.95	698.00
478.31	722.00
478.66	715.00
479.01	751.00
479.36	758.00
479.71	740.00
480.07	768.00
480.42	748.00
480.77	766.00
481.12	794.00
481.47	798.00
481.82	795.00
482.18	802.00
482.53	795.00
482.88	820.00
483.23	841.00
483.58	826.00
483.93	846.00
484.29	849.00
484.64	879.00
484.99	863.00
485.34	855.00
485.69	890.00
486.04	924.00
486.39	913.00
486.74	941.00
487.10	936.00
487.45	952.00
487.80	947.00
488.15	954.00
488.50	976.00
488.85	961.00
489.20	960.00
489.55	976.00
489.90	987.00
490.26	990.00
490.61	1001.00
490.96	1012.00
491.31	1008.00
491.66	1054.00
492.01	1038.00
492.36	1030.00
492.71	1058.00
493.06	1059.00
493.41	1065.00
493.76	1056.00
494.11	1064.00
494.46	1085.00
494.81	1071.00
495.16	1101.00
495.51	1108.00
495.86	1113.00
496.21	1113.00
496.56	1131.00
496.91	1118.00
497.27	1137.00
497.62	1124.00
497.97	1142.00
498.32	1155.00
498.67	1157.00
499.02	1145.00
499.37	1172.00
499.72	1185.00
500.07	1198.00
500.42	1214.00
500.77	1188.00
501.11	1211.00
501.46	1201.00
501.81	1224.00
502.16	1223.00
502.51	1231.00
502.86	1240.00
503.21	1248.00
503.56	1243.00
503.91	1254.00
504.26	1260.00
504.61	1234.00
504.96	1279.00
505.31	1284.00
505.66	1295.00
506.01	1292.00
506.36	1298.00
506.71	1310.00
507.06	1314.00
507.41	1321.00
507.75	1369.00
508.10	1334.00
508.45	1347.00
508.80	1351.00
509.15	1364.00
509.50	1377.00
509.85	1374.00
510.20	1373.00
510.55	1357.00
510.90	1405.00
511.24	1371.00
511.59	1404.00
511.94	1399.00
512.29	1417.00
512.64	1410.00
512.99	1440.00
513.34	1436.00
513.68	1458.00
514.03	1444.00
514.38	1450.00
514.73	1460.00
515.08	1474.00
515.43	1489.00
515.77	1470.00
516.12	1480.00
516.47	1496.00
516.82	1517.00
517.17	1511.00
517.52	1506.00
517.86	1508.00
518.21	1521.00
518.56	1543.00
518.91	1533.00
519.26	1534.00
519.60	1552.00
519.95	1562.00
520.30	1574.00
520.65	1598.00
521.00	1573.00
521.34	1585.00
521.69	1604.00
522.04	1571.00
522.39	1617.00
522.73	1596.00
523.08	1614.00
523.43	1625.00
523.78	1626.00
524.12	1628.00
524.47	1620.00
524.82	1671.00
525.17	1643.00
525.51	1655.00
525.86	1656.00
526.21	1665.00
526.56	1672.00
526.90	1670.00
527.25	1694.00
527.60	1719.00
527.94	1702.00
528.29	1681.00
528.64	1696.00
528.99	1702.00
529.33	1710.00
529.68	1716.00
530.03	1720.00
530.37	1757.00
530.72	1741.00
531.07	1728.00
531.41	1764.00
531.76	1753.00
532.11	1756.00
532.45	1752.00
532.80	1768.00
533.15	1751.00
533.49	1754.00
533.84	1750.00
534.19	1778.00
534.53	1782.00
534.88	1797.00
535.23	1809.00
535.57	1793.00
535.92	1802.00
536.26	1817.00
536.61	1831.00
536.96	1817.00
537.30	1823.00
537.65	1848.00
537.99	1834.00
538.34	1845.00
538.69	1818.00
539.03	1850.00
539.38	1867.00
539.72	1872.00
540.07	1875.00
540.42	1896.00
540.76	1899.00
541.11	1900.00
541.45	1894.00
541.80	1906.00
542.14	1899.00
542.49	1906.00
542.84	1904.00
543.18	1934.00
543.53	1908.00
543.87	1935.00
544.22	1935.00
544.56	1955.00
544.91	1919.00
545.25	1965.00
545.60	1965.00
545.94	1968.00
546.29	1961.00
546.63	1973.00
546.98	1959.00
547.32	1976.00
547.67	1989.00
548.01	1995.00
548.36	1969.00
548.70	1994.00
549.05	2015.00
549.39	1997.00
549.74	2003.00
550.08	2006.00
550.43	2038.00
550.77	2031.00
551.12	2041.00
551.46	2040.00
551.81	2034.00
552.15	2075.00
552.50	2050.00
552.84	2065.00
553.18	2043.00
553.53	2076.00
553.87	2074.00
554.22	2070.00
554.56	2068.00
554.91	2091.00
555.25	2080.00
555.59	2113.00
555.94	2105.00
556.28	2113.00
556.63	2100.00
556.97	2108.00
557.32	2102.00
557.66	2118.00
558.00	2112.00
558.35	2115.00
558.69	2137.00
559.03	2177.00
559.38	2138.00
559.72	2154.00
560.07	2159.00
560.41	2146.00
560.75	2157.00
561.10	2151.00
561.44	2173.00
561.78	2186.00
562.13	2148.00
562.47	2171.00
562.81	2172.00
563.16	2206.00
563.50	2209.00
563.84	2197.00
564.19	2225.00
564.53	2194.00
564.87	2204.00
565.22	2210.00
565.56	2233.00
565.90	2226.00
566.25	2199.00
566.59	2253.00
566.93	2227.00
567.28	2240.00
567.62	2237.00
567.96	2282.00
568.30	2270.00
568.65	2250.00
568.99	2259.00
569.33	2264.00
569.68	2271.00
570.02	2292.00
570.36	2268.00
570.70	2268.00
571.05	2274.00
571.39	2305.00
571.73	2298.00
572.07	2288.00
572.42	2312.00
572.76	2299.00
573.10	2327.00
573.44	2311.00
573.78	2351.00
574.13	2320.00
574.47	2318.00
574.81	2323.00
575.15	2343.00
575.49	2331.00
575.84	2302.00
576.18	2315.00
576.52	2298.00
576.86	2304.00
577.20	2304.00
577.55	2275.00
577.89	2264.00
578.23	2261.00
578.57	2263.00
578.91	2230.00
579.25	2256.00
579.60	2224.00
579.94	2227.00
580.28	2241.00
580.62	2244.00
580.96	2253.00
581.30	2269.00
581.65	2274.00
581.99	2308.00
582.33	2310.00
582.67	2320.00
583.01	2352.00
583.35	2376.00
583.69	2409.00
584.03	2374.00
584.37	2414.00
584.72	2386.00
585.06	2410.00
585.40	2452.00
585.74	2424.00
586.08	2418.00
586.42	2419.00
586.76	2425.00
587.10	2394.00
587.44	2417.00
587.78	2431.00
588.12	2420.00
588.46	2407.00
588.80	2406.00
589.15	2446.00
589.49	2423.00
589.83	2414.00
590.17	2439.00
590.51	2444.00
590.85	2434.00
591.19	2445.00
591.53	2423.00
591.87	2477.00
592.21	2442.00
592.55	2469.00
592.89	2453.00
593.23	2485.00
593.57	2462.00
593.91	2430.00
594.25	2466.00
594.59	2453.00
594.93	2462.00
595.27	2463.00
595.61	2456.00
595.95	2466.00
596.29	2466.00
596.63	2477.00
596.97	2444.00
597.31	2481.00
597.65	2460.00
597.99	2489.00
598.32	2460.00
598.66	2471.00
599.00	2475.00
599.34	2470.00
599.68	2461.00
600.02	2481.00
600.36	2484.00
600.70	2489.00
601.04	2483.00
601.38	2465.00
601.72	2494.00
602.06	2502.00
602.40	2492.00
602.73	2509.00
603.07	2513.00
603.41	2499.00
603.75	2502.00
604.09	2538.00
604.43	2526.00
604.77	2509.00
605.11	2522.00
605.45	2547.00
605.78	2531.00
606.12	2563.00
606.46	2508.00
606.80	2503.00
607.14	2505.00
607.48	2525.00
607.81	2519.00
608.15	2551.00
608.49	2534.00
608.83	2538.00
609.17	2573.00
609.51	2533.00
609.84	2560.00
610.18	2558.00
610.52	2562.00
610.86	2579.00
611.20	2556.00
611.53	2549.00
611.87	2584.00
612.21	2579.00
612.55	2543.00
612.89	2581.00
613.22	2575.00
613.56	2539.00
613.90	2576.00
614.24	2601.00
614.57	2593.00
614.91	2590.00
615.25	2555.00
615.59	2588.00
615.92	2553.00
616.26	2598.00
616.60	2565.00
616.94	2573.00
617.27	2569.00
617.61	2603.00
617.95	2571.00
618.29	2571.00
618.62	2624.00
618.96	2624.00
619.30	2604.00
619.63	2589.00
619.97	2615.00
620.31	2598.00
620.64	2610.00
620.98	2581.00
621.32	2597.00
621.66	2596.00
621.99	2585.00
622.33	2604.00
622.67	2598.00
623.00	2617.00
623.34	2611.00
623.68	2610.00
624.01	2609.00
624.35	2595.00
624.68	2639.00
625.02	2627.00
625.36	2660.00
625.69	2628.00
626.03	2632.00
626.37	2613.00
626.70	2611.00
627.04	2606.00
627.37	2652.00
627.71	2612.00
628.05	2634.00
628.38	2633.00
628.72	2618.00
629.05	2631.00
629.39	2615.00
629.73	2618.00
630.06	2623.00
630.40	2598.00
630.73	2626.00
631.07	2651.00
631.41	2619.00
631.74	2635.00
632.08	2605.00
632.41	2618.00
632.75	2595.00
633.08	2606.00
633.42	2623.00
633.75	2631.00
634.09	2610.00
634.42	2603.00
634.76	2604.00
635.09	2656.00
635.43	2616.00
635.76	2615.00
636.10	2619.00
636.43	2628.00
636.77	2630.00
637.10	2632.00
637.44	2626.00
637.77	2620.00
638.11	2606.00
638.44	2619.00
638.78	2604.00
639.11	2594.00
639.45	2607.00
639.78	2631.00
640.12	2622.00
640.45	2576.00
640.79	2610.00
641.12	2536.00
641.46	2623.00
641.79	2613.00
642.12	2577.00
642.46	2599.00
642.79	2607.00
643.13	2616.00
643.46	2597.00
643.80	2594.00
644.13	2626.00
644.46	2579.00
644.80	2578.00
645.13	2580.00
645.47	2595.00
645.80	2587.00
646.13	2575.00
646.47	2574.00
646.80	2573.00
647.13	2567.00
647.47	2593.00
647.80	2550.00
648.14	2590.00
648.47	2581.00
648.80	2548.00
649.14	2562.00
649.47	2558.00
649.80	2547.00
650.14	2554.00
650.47	2530.00
650.80	2576.00
651.14	2534.00
651.47	2589.00
651.80	2517.00
652.14	2540.00
652.47	2541.00
652.80	2522.00
653.14	2566.00
653.47	2546.00
653.80	2516.00
654.13	2525.00
654.47	2535.00
654.80	2544.00
655.13	2530.00
655.47	2519.00
655.80	2506.00
656.13	2535.00
656.46	2507.00
656.80	2529.00
657.13	2502.00
657.46	2514.00
657.79	2528.00
658.13	2508.00
658.46	2494.00
658.79	2487.00
659.12	2494.00
659.45	2483.00
659.79	2486.00
660.12	2481.00
660.45	2491.00
660.78	2475.00
661.12	2490.00
661.45	2473.00
661.78	2458.00
662.11	2454.00
662.44	2462.00
662.77	2465.00
663.11	2466.00
663.44	2449.00
663.77	2449.00
664.10	2446.00
664.43	2458.00
664.77	2416.00
665.10	2512.00
665.43	2460.00
665.76	2444.00
666.09	2461.00
666.42	2470.00
666.75	2439.00
667.08	2449.00
667.42	2416.00
667.75	2422.00
668.08	2444.00
668.41	2446.00
668.74	2456.00
669.07	2446.00
669.40	2439.00
669.73	2432.00
670.06	2428.00
670.40	2410.00
670.73	2415.00
671.06	2434.00
671.39	2439.00
671.72	2428.00
672.05	2436.00
672.38	2403.00
672.71	2400.00
673.04	2420.00
673.37	2401.00
673.70	2391.00
674.03	2397.00
674.36	2410.00
674.69	2392.00
675.02	2424.00
675.35	2408.00
675.68	2413.00
676.01	2412.00
676.34	2413.00
676.67	2432.00
677.00	2387.00
677.33	2387.00
677.66	2400.00
677.99	2412.00
678.32	2412.00
678.65	2375.00
678.98	2377.00
679.31	2384.00
679.64	2391.00
679.97	2370.00
680.30	2363.00
680.63	2328.00
680.96	2372.00
681.29	2343.00
681.62	2341.00
681.95	2357.00
682.28	2383.00
682.61	2358.00
682.94	2372.00
683.27	2369.00
683.60	2351.00
683.93	2364.00
684.25	2368.00
684.58	2353.00
684.91	2346.00
685.24	2338.00
685.57	2322.00
685.90	2343.00
686.23	2332.00
686.56	2364.00
686.89	2349.00
687.21	2330.00
687.54	2323.00
687.87	2327.00
688.20	2304.00
688.53	2324.00
688.86	2313.00
689.19	2318.00
689.51	2330.00
689.84	2331.00
690.17	2311.00
690.50	2316.00
690.83	2323.00
691.16	2295.00
691.48	2299.00
691.81	2324.00
692.14	2307.00
692.47	2308.00
692.80	2256.00
693.12	2286.00
693.45	2274.00
693.78	2313.00
694.11	2292.00
694.44	2257.00
694.76	2302.00
695.09	2263.00
695.42	2262.00
695.75	2261.00
696.07	2297.00
696.40	2257.00
696.73	2248.00
697.06	2220.00
697.38	2244.00
697.71	2254.00
698.04	2230.00
698.37	2233.00
698.69	2213.00
699.02	2192.00
699.35	2227.00
699.67	2227.00
700.00	2228.00
700.33	2199.00
700.66	2216.00
700.98	2207.00
701.31	2204.00
701.64	2205.00
701.96	2180.00
702.29	2216.00
702.62	2198.00
702.94	2158.00
703.27	2168.00
703.60	2161.00
703.92	2164.00
704.25	2171.00
704.58	2153.00
704.90	2146.00
705.23	2166.00
705.56	2124.00
705.88	2110.00
706.21	2131.00
706.53	2109.00
706.86	2106.00
707.19	2073.00
707.51	2100.00
707.84	2113.00
708.16	2096.00
708.49	2084.00
708.82	2077.00
709.14	2092.00
709.47	2070.00
709.79	2052.00
710.12	2071.00
710.45	2058.00
710.77	2021.00
711.10	2069.00
711.42	2004.00
711.75	2062.00
712.07	2022.00
712.40	2036.00
712.72	2027.00
713.05	2024.00
713.37	2011.00
713.70	1975.00
714.03	1965.00
714.35	1981.00
714.68	1972.00
715.00	1993.00
715.33	1976.00
715.65	1963.00
715.98	1966.00
716.30	1971.00
716.63	1935.00
716.95	1888.00
717.28	1923.00
717.60	1897.00
717.92	1890.00
718.25	1886.00
718.57	1880.00
718.90	1859.00
719.22	1857.00
719.55	1843.00
719.87	1815.00
720.20	1858.00
720.52	1826.00
720.84	1815.00
721.17	1806.00
721.49	1825.00
721.82	1804.00
722.14	1793.00
722.47	1786.00
722.79	1758.00
723.11	1779.00
723.44	1753.00
723.76	1776.00
724.09	1734.00
724.41	1730.00
724.73	1732.00
725.06	1734.00
725.38	1726.00
725.70	1708.00
726.03	1726.00
726.35	1720.00
726.67	1720.00
727.00	1711.00
727.32	1684.00
727.65	1699.00
727.97	1674.00
728.29	1715.00
728.61	1698.00
728.94	1701.00
729.26	1678.00
729.58	1683.00
729.91	1656.00
730.23	1680.00
730.55	1664.00
730.88	1689.00
731.20	1682.00
731.52	1683.00
731.84	1649.00
732.17	1671.00
732.49	1673.00
732.81	1660.00
733.14	1646.00
733.46	1694.00
733.78	1657.00
734.10	1664.00
734.43	1669.00
734.75	1627.00
735.07	1672.00
735.39	1654.00
735.72	1633.00
736.04	1643.00
736.36	1652.00
736.68	1637.00
737.00	1624.00
737.33	1655.00
737.65	1638.00
737.97	1619.00
738.29	1637.00
738.61	1628.00
738.94	1645.00
739.26	1607.00
739.58	1604.00
739.90	1629.00
740.22	1633.00
740.54	1600.00
740.87	1608.00
741.19	1635.00
741.51	1624.00
741.83	1611.00
742.15	1587.00
742.47	1621.00
742.79	1616.00
743.12	1578.00
743.44	1614.00
743.76	1606.00
744.08	1619.00
744.40	1586.00
744.72	1581.00
745.04	1571.00
745.36	1581.00
745.68	1584.00
746.00	1585.00
746.33	1595.00
746.65	1567.00
746.97	1563.00
747.29	1586.00
747.61	1562.00
747.93	1586.00
748.25	1575.00
748.57	1591.00
748.89	1567.00
749.21	1578.00
749.53	1563.00
749.85	1575.00
750.17	1575.00
750.49	1562.00
750.81	1568.00
751.13	1536.00
751.45	1574.00
751.77	1567.00
752.09	1557.00
752.41	1564.00
752.73	1550.00
753.05	1563.00
753.37	1576.00
753.69	1566.00
754.01	1544.00
754.33	1539.00
754.65	1581.00
754.97	1559.00
755.29	1560.00
755.61	1532.00
755.93	1567.00
756.25	1572.00
756.57	1563.00
756.89	1562.00
757.21	1561.00
757.53	1530.00
757.84	1560.00
758.16	1567.00
758.48	1553.00
758.80	1545.00
759.12	1539.00
759.44	1536.00
759.76	1528.00
760.08	1548.00
760.40	1535.00
760.71	1563.00
761.03	1539.00
761.35	1557.00
761.67	1554.00
761.99	1532.00
762.31	1551.00
762.63	1543.00
762.94	1556.00
763.26	1549.00
763.58	1541.00
763.90	1531.00
764.22	1537.00
764.54	1547.00
764.85	1552.00
765.17	1555.00
765.49	1537.00
765.81	1558.00
766.13	1555.00
766.44	1555.00
766.76	1590.00
767.08	1542.00
767.40	1555.00
767.72	1554.00
768.03	1559.00
768.35	1551.00
768.67	1565.00
768.99	1544.00
769.30	1564.00
769.62	1547.00
769.94	1537.00
770.26	1583.00
