SpectraSuite Data File
++++++++++++++++++++++++++++++++++++
Date: Fri Jul 12 14:01:00 ART 2024
User: Javier
Dark Spectrum Present: Yes
Reference Spectrum Present: No
Number of Sampled Component Spectra: 1
Spectrometers: ADUD7991
Integration Time (usec): 30000 (ADUD7991)
Spectra Averaged: 1 (ADUD7991)
Boxcar Smoothing: 0 (ADUD7991)
Correct for Electrical Dark: No (ADUD7991)
Strobe/Lamp Enabled: No (ADUD7991)
Correct for Detector Non-linearity: No (ADUD7991)
Correct for Stray Light: No (ADUD7991)
Number of Pixels in Processed Spectrum: 2048
>>>>>Begin Processed Spectral Data<<<<<
338.97	0.00
339.33	-11.00
339.70	8.00
340.06	-1.00
340.42	-9.00
340.79	-5.00
341.15	4.00
341.52	0.00
341.88	4.00
342.24	-2.00
342.61	-1.00
342.97	0.00
343.33	1.00
343.70	-3.00
344.06	-2.00
344.43	-1.00
344.79	1.00
345.15	-4.00
345.52	-5.00
345.88	-1.00
346.24	-2.00
346.61	1.00
346.97	7.00
347.33	9.00
347.70	-3.00
348.06	3.00
348.42	0.00
348.79	0.00
349.15	3.00
349.51	8.00
349.88	-3.00
350.24	-3.00
350.60	2.00
350.97	2.00
351.33	3.00
351.69	9.00
352.05	-2.00
352.42	-2.00
352.78	-2.00
353.14	2.00
353.51	-4.00
353.87	3.00
354.23	-3.00
354.60	-1.00
354.96	3.00
355.32	-4.00
355.68	4.00
356.05	3.00
356.41	2.00
356.77	11.00
357.13	0.00
357.50	0.00
357.86	5.00
358.22	-7.00
358.58	-1.00
358.95	-6.00
359.31	1.00
359.67	4.00
360.03	2.00
360.40	-3.00
360.76	1.00
361.12	-2.00
361.48	0.00
361.85	-8.00
362.21	-4.00
362.57	-7.00
362.93	2.00
363.29	8.00
363.66	2.00
364.02	-5.00
364.38	5.00
364.74	-2.00
365.10	3.00
365.47	-1.00
365.83	8.00
366.19	-1.00
366.55	5.00
366.91	2.00
367.28	-7.00
367.64	4.00
368.00	5.00
368.36	8.00
368.72	-5.00
369.08	2.00
369.45	3.00
369.81	-3.00
370.17	3.00
370.53	0.00
370.89	11.00
371.25	-4.00
371.62	-4.00
371.98	0.00
372.34	2.00
372.70	8.00
373.06	0.00
373.42	1.00
373.78	5.00
374.14	1.00
374.51	2.00
374.87	-1.00
375.23	7.00
375.59	4.00
375.95	2.00
376.31	-7.00
376.67	2.00
377.03	3.00
377.39	-7.00
377.76	3.00
378.12	9.00
378.48	-1.00
378.84	-1.00
379.20	1.00
379.56	7.00
379.92	9.00
380.28	4.00
380.64	4.00
381.00	8.00
381.36	-2.00
381.72	9.00
382.08	0.00
382.45	4.00
382.81	0.00
383.17	3.00
383.53	6.00
383.89	5.00
384.25	-2.00
384.61	8.00
384.97	5.00
385.33	2.00
385.69	-2.00
386.05	1.00
386.41	8.00
386.77	-2.00
387.13	1.00
387.49	2.00
387.85	6.00
388.21	1.00
388.57	10.00
388.93	8.00
389.29	7.00
389.65	-1.00
390.01	8.00
390.37	5.00
390.73	8.00
391.09	5.00
391.45	15.00
391.81	9.00
392.17	9.00
392.53	19.00
392.89	12.00
393.25	17.00
393.61	16.00
393.97	21.00
394.33	12.00
394.69	16.00
395.05	23.00
395.41	23.00
395.77	25.00
396.12	21.00
396.48	22.00
396.84	23.00
397.20	24.00
397.56	25.00
397.92	30.00
398.28	24.00
398.64	32.00
399.00	38.00
399.36	33.00
399.72	46.00
400.08	38.00
400.44	45.00
400.79	44.00
401.15	44.00
401.51	50.00
401.87	52.00
402.23	61.00
402.59	58.00
402.95	63.00
403.31	65.00
403.67	71.00
404.02	73.00
404.38	64.00
404.74	70.00
405.10	72.00
405.46	71.00
405.82	75.00
406.18	76.00
406.53	78.00
406.89	79.00
407.25	86.00
407.61	82.00
407.97	86.00
408.33	97.00
408.69	88.00
409.04	102.00
409.40	107.00
409.76	102.00
410.12	115.00
410.48	112.00
410.83	114.00
411.19	121.00
411.55	110.00
411.91	122.00
412.27	127.00
412.63	126.00
412.98	128.00
413.34	141.00
413.70	116.00
414.06	139.00
414.41	140.00
414.77	148.00
415.13	142.00
415.49	144.00
415.85	139.00
416.20	146.00
416.56	139.00
416.92	155.00
417.28	148.00
417.63	150.00
417.99	148.00
418.35	146.00
418.71	166.00
419.06	162.00
419.42	156.00
419.78	171.00
420.14	171.00
420.49	179.00
420.85	167.00
421.21	166.00
421.57	191.00
421.92	172.00
422.28	173.00
422.64	176.00
422.99	180.00
423.35	204.00
423.71	193.00
424.06	203.00
424.42	205.00
424.78	197.00
425.14	203.00
425.49	203.00
425.85	208.00
426.21	211.00
426.56	218.00
426.92	210.00
427.28	215.00
427.63	215.00
427.99	217.00
428.35	226.00
428.70	231.00
429.06	226.00
429.42	226.00
429.77	234.00
430.13	240.00
430.49	239.00
430.84	236.00
431.20	235.00
431.55	244.00
431.91	243.00
432.27	245.00
432.62	235.00
432.98	237.00
433.34	253.00
433.69	235.00
434.05	246.00
434.40	245.00
434.76	255.00
435.12	259.00
435.47	236.00
435.83	251.00
436.18	245.00
436.54	244.00
436.90	266.00
437.25	263.00
437.61	261.00
437.96	267.00
438.32	277.00
438.67	263.00
439.03	282.00
439.39	270.00
439.74	279.00
440.10	278.00
440.45	275.00
440.81	278.00
441.16	270.00
441.52	271.00
441.87	281.00
442.23	287.00
442.59	280.00
442.94	280.00
443.30	280.00
443.65	283.00
444.01	290.00
444.36	285.00
444.72	284.00
445.07	286.00
445.43	298.00
445.78	289.00
446.14	286.00
446.49	280.00
446.85	296.00
447.20	288.00
447.56	289.00
447.91	294.00
448.27	302.00
448.62	303.00
448.98	304.00
449.33	294.00
449.69	303.00
450.04	293.00
450.39	315.00
450.75	316.00
451.10	317.00
451.46	318.00
451.81	314.00
452.17	304.00
452.52	327.00
452.88	323.00
453.23	315.00
453.58	302.00
453.94	322.00
454.29	308.00
454.65	315.00
455.00	332.00
455.36	335.00
455.71	327.00
456.06	324.00
456.42	324.00
456.77	322.00
457.13	336.00
457.48	339.00
457.83	327.00
458.19	340.00
458.54	327.00
458.90	325.00
459.25	354.00
459.60	354.00
459.96	352.00
460.31	335.00
460.66	339.00
461.02	349.00
461.37	338.00
461.73	343.00
462.08	337.00
462.43	362.00
462.79	352.00
463.14	351.00
463.49	359.00
463.85	356.00
464.20	359.00
464.55	371.00
464.91	374.00
465.26	374.00
465.61	371.00
465.97	378.00
466.32	363.00
466.67	390.00
467.03	391.00
467.38	396.00
467.73	401.00
468.08	401.00
468.44	393.00
468.79	410.00
469.14	401.00
469.50	416.00
469.85	418.00
470.20	429.00
470.55	442.00
470.91	435.00
471.26	436.00
471.61	431.00
471.97	444.00
472.32	455.00
472.67	453.00
473.02	475.00
473.38	489.00
473.73	486.00
474.08	483.00
474.43	488.00
474.78	499.00
475.14	493.00
475.49	507.00
475.84	515.00
476.19	521.00
476.55	542.00
476.90	536.00
477.25	540.00
477.60	539.00
477.95	560.00
478.31	563.00
478.66	578.00
479.01	596.00
479.36	605.00
479.71	595.00
480.07	594.00
480.42	610.00
480.77	632.00
481.12	641.00
481.47	644.00
481.82	649.00
482.18	663.00
482.53	659.00
482.88	672.00
483.23	687.00
483.58	696.00
483.93	704.00
484.29	720.00
484.64	739.00
484.99	728.00
485.34	732.00
485.69	742.00
486.04	781.00
486.39	771.00
486.74	782.00
487.10	801.00
487.45	785.00
487.80	798.00
488.15	825.00
488.50	823.00
488.85	832.00
489.20	846.00
489.55	856.00
489.90	856.00
490.26	862.00
490.61	878.00
490.96	899.00
491.31	908.00
491.66	915.00
492.01	931.00
492.36	941.00
492.71	945.00
493.06	970.00
493.41	970.00
493.76	972.00
494.11	979.00
494.46	1015.00
494.81	995.00
495.16	1021.00
495.51	1020.00
495.86	1056.00
496.21	1053.00
496.56	1063.00
496.91	1054.00
497.27	1085.00
497.62	1070.00
497.97	1111.00
498.32	1098.00
498.67	1111.00
499.02	1130.00
499.37	1126.00
499.72	1142.00
500.07	1149.00
500.42	1178.00
500.77	1197.00
501.11	1190.00
501.46	1199.00
501.81	1222.00
502.16	1215.00
502.51	1240.00
502.86	1255.00
503.21	1255.00
503.56	1269.00
503.91	1278.00
504.26	1302.00
504.61	1316.00
504.96	1329.00
505.31	1320.00
505.66	1341.00
506.01	1343.00
506.36	1365.00
506.71	1367.00
507.06	1379.00
507.41	1411.00
507.75	1432.00
508.10	1426.00
508.45	1427.00
508.80	1432.00
509.15	1464.00
509.50	1479.00
509.85	1494.00
510.20	1505.00
510.55	1496.00
510.90	1510.00
511.24	1511.00
511.59	1551.00
511.94	1563.00
512.29	1573.00
512.64	1573.00
512.99	1592.00
513.34	1622.00
513.68	1602.00
514.03	1633.00
514.38	1648.00
514.73	1662.00
515.08	1669.00
515.43	1702.00
515.77	1716.00
516.12	1731.00
516.47	1732.00
516.82	1763.00
517.17	1763.00
517.52	1760.00
517.86	1760.00
518.21	1806.00
518.56	1802.00
518.91	1813.00
519.26	1845.00
519.60	1858.00
519.95	1857.00
520.30	1873.00
520.65	1876.00
521.00	1890.00
521.34	1897.00
521.69	1913.00
522.04	1919.00
522.39	1943.00
522.73	1973.00
523.08	1948.00
523.43	1998.00
523.78	1994.00
524.12	1995.00
524.47	2026.00
524.82	2019.00
525.17	2018.00
525.51	2054.00
525.86	2073.00
526.21	2087.00
526.56	2093.00
526.90	2115.00
527.25	2123.00
527.60	2127.00
527.94	2133.00
528.29	2137.00
528.64	2145.00
528.99	2159.00
529.33	2193.00
529.68	2188.00
530.03	2205.00
530.37	2201.00
530.72	2205.00
531.07	2251.00
531.41	2246.00
531.76	2239.00
532.11	2243.00
532.45	2291.00
532.80	2280.00
533.15	2297.00
533.49	2318.00
533.84	2323.00
534.19	2323.00
534.53	2327.00
534.88	2345.00
535.23	2375.00
535.57	2377.00
535.92	2437.00
536.26	2427.00
536.61	2437.00
536.96	2429.00
537.30	2438.00
537.65	2454.00
537.99	2453.00
538.34	2468.00
538.69	2449.00
539.03	2499.00
539.38	2511.00
539.72	2532.00
540.07	2503.00
540.42	2559.00
540.76	2542.00
541.11	2576.00
541.45	2564.00
541.80	2580.00
542.14	2555.00
542.49	2615.00
542.84	2638.00
543.18	2638.00
543.53	2630.00
543.87	2665.00
544.22	2681.00
544.56	2708.00
544.91	2691.00
545.25	2700.00
545.60	2713.00
545.94	2734.00
546.29	2725.00
546.63	2749.00
546.98	2728.00
547.32	2768.00
547.67	2782.00
548.01	2801.00
548.36	2781.00
548.70	2806.00
549.05	2798.00
549.39	2831.00
549.74	2828.00
550.08	2832.00
550.43	2840.00
550.77	2815.00
551.12	2856.00
551.46	2876.00
551.81	2860.00
552.15	2906.00
552.50	2938.00
552.84	2911.00
553.18	2938.00
553.53	2955.00
553.87	2947.00
554.22	2943.00
554.56	2954.00
554.91	2977.00
555.25	2954.00
555.59	2952.00
555.94	2966.00
556.28	3007.00
556.63	3004.00
556.97	3035.00
557.32	3008.00
557.66	3028.00
558.00	3038.00
558.35	3005.00
558.69	3048.00
559.03	3093.00
559.38	3072.00
559.72	3134.00
560.07	3089.00
560.41	3114.00
560.75	3116.00
561.10	3093.00
561.44	3118.00
561.78	3131.00
562.13	3119.00
562.47	3152.00
562.81	3181.00
563.16	3174.00
563.50	3164.00
563.84	3151.00
564.19	3165.00
564.53	3191.00
564.87	3206.00
565.22	3218.00
565.56	3197.00
565.90	3234.00
566.25	3246.00
566.59	3276.00
566.93	3244.00
567.28	3243.00
567.62	3251.00
567.96	3284.00
568.30	3267.00
568.65	3238.00
568.99	3301.00
569.33	3280.00
569.68	3299.00
570.02	3288.00
570.36	3302.00
570.70	3302.00
571.05	3343.00
571.39	3347.00
571.73	3294.00
572.07	3326.00
572.42	3333.00
572.76	3320.00
573.10	3353.00
573.44	3330.00
573.78	3351.00
574.13	3343.00
574.47	3339.00
574.81	3361.00
575.15	3376.00
575.49	3364.00
575.84	3356.00
576.18	3363.00
576.52	3368.00
576.86	3372.00
577.20	3368.00
577.55	3325.00
577.89	3346.00
578.23	3317.00
578.57	3275.00
578.91	3253.00
579.25	3279.00
579.60	3230.00
579.94	3240.00
580.28	3254.00
580.62	3279.00
580.96	3254.00
581.30	3304.00
581.65	3308.00
581.99	3348.00
582.33	3362.00
582.67	3384.00
583.01	3430.00
583.35	3457.00
583.69	3447.00
584.03	3433.00
584.37	3498.00
584.72	3445.00
585.06	3435.00
585.40	3510.00
585.74	3459.00
586.08	3462.00
586.42	3448.00
586.76	3484.00
587.10	3461.00
587.44	3457.00
587.78	3506.00
588.12	3461.00
588.46	3465.00
588.80	3439.00
589.15	3473.00
589.49	3477.00
589.83	3404.00
590.17	3483.00
590.51	3459.00
590.85	3461.00
591.19	3470.00
591.53	3459.00
591.87	3501.00
592.21	3433.00
592.55	3440.00
592.89	3452.00
593.23	3447.00
593.57	3475.00
593.91	3456.00
594.25	3452.00
594.59	3438.00
594.93	3400.00
595.27	3444.00
595.61	3446.00
595.95	3458.00
596.29	3464.00
596.63	3455.00
596.97	3459.00
597.31	3443.00
597.65	3431.00
597.99	3450.00
598.32	3445.00
598.66	3426.00
599.00	3456.00
599.34	3457.00
599.68	3379.00
600.02	3453.00
600.36	3467.00
600.70	3446.00
601.04	3437.00
601.38	3463.00
601.72	3461.00
602.06	3452.00
602.40	3425.00
602.73	3453.00
603.07	3467.00
603.41	3452.00
603.75	3477.00
604.09	3442.00
604.43	3453.00
604.77	3422.00
605.11	3449.00
605.45	3419.00
605.78	3427.00
606.12	3466.00
606.46	3429.00
606.80	3449.00
607.14	3435.00
607.48	3410.00
607.81	3405.00
608.15	3414.00
608.49	3409.00
608.83	3443.00
609.17	3436.00
609.51	3426.00
609.84	3415.00
610.18	3439.00
610.52	3403.00
610.86	3427.00
611.20	3413.00
611.53	3385.00
611.87	3406.00
612.21	3384.00
612.55	3411.00
612.89	3414.00
613.22	3412.00
613.56	3359.00
613.90	3384.00
614.24	3402.00
614.57	3380.00
614.91	3388.00
615.25	3383.00
615.59	3400.00
615.92	3381.00
616.26	3387.00
616.60	3380.00
616.94	3379.00
617.27	3336.00
617.61	3376.00
617.95	3351.00
618.29	3350.00
618.62	3324.00
618.96	3372.00
619.30	3346.00
619.63	3363.00
619.97	3336.00
620.31	3321.00
620.64	3350.00
620.98	3346.00
621.32	3344.00
621.66	3331.00
621.99	3334.00
622.33	3319.00
622.67	3342.00
623.00	3335.00
623.34	3325.00
623.68	3285.00
624.01	3349.00
624.35	3306.00
624.68	3304.00
625.02	3285.00
625.36	3297.00
625.69	3281.00
626.03	3273.00
626.37	3276.00
626.70	3293.00
627.04	3279.00
627.37	3294.00
627.71	3229.00
628.05	3279.00
628.38	3241.00
628.72	3237.00
629.05	3216.00
629.39	3226.00
629.73	3206.00
630.06	3243.00
630.40	3230.00
630.73	3189.00
631.07	3219.00
631.41	3185.00
631.74	3191.00
632.08	3170.00
632.41	3185.00
632.75	3157.00
633.08	3139.00
633.42	3170.00
633.75	3144.00
634.09	3136.00
634.42	3097.00
634.76	3152.00
635.09	3121.00
635.43	3119.00
635.76	3109.00
636.10	3077.00
636.43	3117.00
636.77	3113.00
637.10	3080.00
637.44	3071.00
637.77	3091.00
638.11	3066.00
638.44	3068.00
638.78	3014.00
639.11	3034.00
639.45	3050.00
639.78	3029.00
640.12	3027.00
640.45	3033.00
640.79	3030.00
641.12	2978.00
641.46	2978.00
641.79	2998.00
642.12	2953.00
642.46	2961.00
642.79	2983.00
643.13	2988.00
643.46	2957.00
643.80	2944.00
644.13	2916.00
644.46	2902.00
644.80	2921.00
645.13	2876.00
645.47	2906.00
645.80	2875.00
646.13	2839.00
646.47	2886.00
646.80	2837.00
647.13	2857.00
647.47	2857.00
647.80	2830.00
648.14	2850.00
648.47	2842.00
648.80	2785.00
649.14	2790.00
649.47	2782.00
649.80	2747.00
650.14	2802.00
650.47	2770.00
650.80	2748.00
651.14	2716.00
651.47	2761.00
651.80	2709.00
652.14	2702.00
652.47	2730.00
652.80	2695.00
653.14	2713.00
653.47	2705.00
653.80	2675.00
654.13	2642.00
654.47	2674.00
654.80	2679.00
655.13	2645.00
655.47	2636.00
655.80	2614.00
656.13	2614.00
656.46	2620.00
656.80	2587.00
657.13	2586.00
657.46	2593.00
657.79	2574.00
658.13	2571.00
658.46	2563.00
658.79	2545.00
659.12	2538.00
659.45	2528.00
659.79	2517.00
660.12	2505.00
660.45	2500.00
660.78	2491.00
661.12	2480.00
661.45	2486.00
661.78	2481.00
662.11	2443.00
662.44	2440.00
662.77	2458.00
663.11	2449.00
663.44	2424.00
663.77	2385.00
664.10	2390.00
664.43	2415.00
664.77	2381.00
665.10	2396.00
665.43	2349.00
665.76	2368.00
666.09	2358.00
666.42	2349.00
666.75	2355.00
667.08	2329.00
667.42	2348.00
667.75	2326.00
668.08	2323.00
668.41	2305.00
668.74	2295.00
669.07	2277.00
669.40	2277.00
669.73	2269.00
670.06	2267.00
670.40	2250.00
670.73	2233.00
671.06	2230.00
671.39	2234.00
671.72	2248.00
672.05	2201.00
672.38	2156.00
672.71	2202.00
673.04	2168.00
673.37	2186.00
673.70	2195.00
674.03	2159.00
674.36	2156.00
674.69	2150.00
675.02	2124.00
675.35	2149.00
675.68	2117.00
676.01	2127.00
676.34	2125.00
676.67	2118.00
677.00	2127.00
677.33	2099.00
677.66	2095.00
677.99	2072.00
678.32	2091.00
678.65	2084.00
678.98	2014.00
679.31	2035.00
679.64	2061.00
679.97	2047.00
680.30	2021.00
680.63	2005.00
680.96	2007.00
681.29	2028.00
681.62	1998.00
681.95	2002.00
682.28	1994.00
682.61	1939.00
682.94	1970.00
683.27	1961.00
683.60	1940.00
683.93	1961.00
684.25	1952.00
684.58	1944.00
684.91	1938.00
685.24	1909.00
685.57	1918.00
685.90	1922.00
686.23	1887.00
686.56	1908.00
686.89	1883.00
687.21	1855.00
687.54	1867.00
687.87	1870.00
688.20	1845.00
688.53	1845.00
688.86	1858.00
689.19	1846.00
689.51	1813.00
689.84	1814.00
690.17	1803.00
690.50	1801.00
690.83	1822.00
691.16	1797.00
691.48	1780.00
691.81	1772.00
692.14	1758.00
692.47	1774.00
692.80	1763.00
693.12	1760.00
693.45	1729.00
693.78	1758.00
694.11	1731.00
694.44	1713.00
694.76	1737.00
695.09	1701.00
695.42	1697.00
695.75	1686.00
696.07	1680.00
696.40	1667.00
696.73	1662.00
697.06	1670.00
697.38	1657.00
697.71	1662.00
698.04	1634.00
698.37	1637.00
698.69	1626.00
699.02	1633.00
699.35	1613.00
699.67	1596.00
700.00	1607.00
700.33	1570.00
700.66	1606.00
700.98	1579.00
701.31	1557.00
701.64	1564.00
701.96	1564.00
702.29	1549.00
702.62	1564.00
702.94	1532.00
703.27	1523.00
703.60	1496.00
703.92	1507.00
704.25	1519.00
704.58	1485.00
704.90	1456.00
705.23	1462.00
705.56	1462.00
705.88	1487.00
706.21	1443.00
706.53	1435.00
706.86	1431.00
707.19	1417.00
707.51	1443.00
707.84	1425.00
708.16	1405.00
708.49	1417.00
708.82	1376.00
709.14	1387.00
709.47	1397.00
709.79	1358.00
710.12	1367.00
710.45	1368.00
710.77	1334.00
711.10	1345.00
711.42	1325.00
711.75	1320.00
712.07	1300.00
712.40	1323.00
712.72	1332.00
713.05	1286.00
713.37	1283.00
713.70	1272.00
714.03	1268.00
714.35	1260.00
714.68	1262.00
715.00	1255.00
715.33	1256.00
715.65	1215.00
715.98	1223.00
716.30	1212.00
716.63	1200.00
716.95	1171.00
717.28	1194.00
717.60	1166.00
717.92	1162.00
718.25	1163.00
718.57	1149.00
718.90	1143.00
719.22	1120.00
719.55	1130.00
719.87	1103.00
720.20	1109.00
720.52	1110.00
720.84	1097.00
721.17	1069.00
721.49	1063.00
721.82	1056.00
722.14	1041.00
722.47	1054.00
722.79	1044.00
723.11	1039.00
723.44	1023.00
723.76	1033.00
724.09	1036.00
724.41	1000.00
724.73	1006.00
725.06	1005.00
725.38	1003.00
725.70	1009.00
726.03	993.00
726.35	996.00
726.67	982.00
727.00	990.00
727.32	974.00
727.65	972.00
727.97	949.00
728.29	958.00
728.61	960.00
728.94	959.00
729.26	950.00
729.58	929.00
729.91	944.00
730.23	947.00
730.55	913.00
730.88	930.00
731.20	949.00
731.52	917.00
731.84	934.00
732.17	929.00
732.49	907.00
732.81	908.00
733.14	898.00
733.46	918.00
733.78	887.00
734.10	925.00
734.43	913.00
734.75	909.00
735.07	897.00
735.39	877.00
735.72	882.00
736.04	889.00
736.36	879.00
736.68	881.00
737.00	875.00
737.33	859.00
737.65	851.00
737.97	871.00
738.29	870.00
738.61	850.00
738.94	860.00
739.26	847.00
739.58	840.00
739.90	861.00
740.22	834.00
740.54	838.00
740.87	842.00
741.19	830.00
741.51	829.00
741.83	841.00
742.15	829.00
742.47	828.00
742.79	834.00
743.12	826.00
743.44	820.00
743.76	820.00
744.08	822.00
744.40	802.00
744.72	813.00
745.04	803.00
745.36	811.00
745.68	784.00
746.00	805.00
746.33	795.00
746.65	782.00
746.97	784.00
747.29	808.00
747.61	792.00
747.93	787.00
748.25	765.00
748.57	774.00
748.89	782.00
749.21	788.00
749.53	776.00
749.85	769.00
750.17	761.00
750.49	762.00
750.81	761.00
751.13	765.00
751.45	771.00
751.77	760.00
752.09	759.00
752.41	757.00
752.73	730.00
753.05	741.00
753.37	750.00
753.69	725.00
754.01	742.00
754.33	732.00
754.65	754.00
754.97	739.00
755.29	752.00
755.61	744.00
755.93	746.00
756.25	753.00
756.57	747.00
756.89	734.00
757.21	739.00
757.53	709.00
757.84	727.00
758.16	725.00
758.48	733.00
758.80	737.00
759.12	737.00
759.44	723.00
759.76	729.00
760.08	722.00
760.40	724.00
760.71	715.00
761.03	721.00
761.35	708.00
761.67	713.00
761.99	697.00
762.31	698.00
762.63	701.00
762.94	721.00
763.26	700.00
763.58	695.00
763.90	705.00
764.22	697.00
764.54	705.00
764.85	689.00
765.17	694.00
765.49	687.00
765.81	686.00
766.13	686.00
766.44	694.00
766.76	688.00
767.08	681.00
767.40	670.00
767.72	673.00
768.03	683.00
768.35	680.00
768.67	676.00
768.99	685.00
769.30	676.00
769.62	667.00
769.94	667.00
770.26	678.00
770.57	674.00
770.89	662.00
771.21	673.00
771.53	669.00
771.84	664.00
772.16	672.00
