SpectraSuite Data File
++++++++++++++++++++++++++++++++++++
Date: Fri Jul 12 13:52:12 ART 2024
User: Javier
Dark Spectrum Present: Yes
Reference Spectrum Present: No
Number of Sampled Component Spectra: 1
Spectrometers: ADUD7991
Integration Time (usec): 30000 (ADUD7991)
Spectra Averaged: 1 (ADUD7991)
Boxcar Smoothing: 0 (ADUD7991)
Correct for Electrical Dark: No (ADUD7991)
Strobe/Lamp Enabled: No (ADUD7991)
Correct for Detector Non-linearity: No (ADUD7991)
Correct for Stray Light: No (ADUD7991)
Number of Pixels in Processed Spectrum: 2048
>>>>>Begin Processed Spectral Data<<<<<
338.97	0.00
339.33	-1.00
339.70	7.00
340.06	3.00
340.42	-3.00
340.79	-9.00
341.15	4.00
341.52	4.00
341.88	2.00
342.24	-4.00
342.61	-7.00
342.97	1.00
343.33	6.00
343.70	2.00
344.06	-3.00
344.43	0.00
344.79	2.00
345.15	-2.00
345.52	0.00
345.88	-5.00
346.24	3.00
346.61	-2.00
346.97	0.00
347.33	4.00
347.70	-1.00
348.06	4.00
348.42	-5.00
348.79	-4.00
349.15	0.00
349.51	4.00
349.88	-4.00
350.24	1.00
350.60	1.00
350.97	-3.00
351.33	0.00
351.69	3.00
352.05	0.00
352.42	-2.00
352.78	0.00
353.14	1.00
353.51	-1.00
353.87	-8.00
354.23	6.00
354.60	3.00
354.96	4.00
355.32	-2.00
355.68	6.00
356.05	0.00
356.41	0.00
356.77	-3.00
357.13	3.00
357.50	6.00
357.86	3.00
358.22	-3.00
358.58	-2.00
358.95	-8.00
359.31	-5.00
359.67	-4.00
360.03	-4.00
360.40	-8.00
360.76	-2.00
361.12	-4.00
361.48	2.00
361.85	-5.00
362.21	0.00
362.57	-2.00
362.93	-1.00
363.29	0.00
363.66	-5.00
364.02	0.00
364.38	1.00
364.74	-3.00
365.10	4.00
365.47	2.00
365.83	8.00
366.19	-1.00
366.55	6.00
366.91	2.00
367.28	-5.00
367.64	0.00
368.00	0.00
368.36	2.00
368.72	-5.00
369.08	1.00
369.45	-2.00
369.81	0.00
370.17	-1.00
370.53	2.00
370.89	6.00
371.25	-2.00
371.62	2.00
371.98	-1.00
372.34	-6.00
372.70	4.00
373.06	7.00
373.42	-4.00
373.78	0.00
374.14	-3.00
374.51	8.00
374.87	-6.00
375.23	4.00
375.59	3.00
375.95	-4.00
376.31	-7.00
376.67	-3.00
377.03	-1.00
377.39	-15.00
377.76	1.00
378.12	2.00
378.48	1.00
378.84	-5.00
379.20	2.00
379.56	6.00
379.92	4.00
380.28	2.00
380.64	4.00
381.00	4.00
381.36	2.00
381.72	10.00
382.08	-1.00
382.45	6.00
382.81	-6.00
383.17	0.00
383.53	-3.00
383.89	12.00
384.25	1.00
384.61	-3.00
384.97	6.00
385.33	1.00
385.69	0.00
386.05	0.00
386.41	0.00
386.77	2.00
387.13	2.00
387.49	-2.00
387.85	2.00
388.21	-4.00
388.57	3.00
388.93	4.00
389.29	-3.00
389.65	-4.00
390.01	7.00
390.37	7.00
390.73	2.00
391.09	1.00
391.45	4.00
391.81	-1.00
392.17	7.00
392.53	8.00
392.89	2.00
393.25	-2.00
393.61	1.00
393.97	4.00
394.33	3.00
394.69	-1.00
395.05	3.00
395.41	7.00
395.77	6.00
396.12	-2.00
396.48	4.00
396.84	-3.00
397.20	3.00
397.56	-3.00
397.92	6.00
398.28	-3.00
398.64	4.00
399.00	6.00
399.36	1.00
399.72	8.00
400.08	7.00
400.44	10.00
400.79	7.00
401.15	7.00
401.51	12.00
401.87	8.00
402.23	7.00
402.59	11.00
402.95	8.00
403.31	13.00
403.67	15.00
404.02	12.00
404.38	10.00
404.74	11.00
405.10	17.00
405.46	10.00
405.82	11.00
406.18	11.00
406.53	9.00
406.89	12.00
407.25	15.00
407.61	6.00
407.97	18.00
408.33	16.00
408.69	15.00
409.04	11.00
409.40	20.00
409.76	10.00
410.12	20.00
410.48	15.00
410.83	15.00
411.19	24.00
411.55	17.00
411.91	19.00
412.27	16.00
412.63	25.00
412.98	23.00
413.34	24.00
413.70	18.00
414.06	24.00
414.41	26.00
414.77	21.00
415.13	25.00
415.49	27.00
415.85	17.00
416.20	16.00
416.56	26.00
416.92	31.00
417.28	24.00
417.63	23.00
417.99	24.00
418.35	20.00
418.71	31.00
419.06	29.00
419.42	27.00
419.78	23.00
420.14	30.00
420.49	33.00
420.85	35.00
421.21	21.00
421.57	35.00
421.92	33.00
422.28	30.00
422.64	33.00
422.99	32.00
423.35	37.00
423.71	35.00
424.06	43.00
424.42	37.00
424.78	41.00
425.14	37.00
425.49	35.00
425.85	36.00
426.21	42.00
426.56	46.00
426.92	31.00
427.28	38.00
427.63	37.00
427.99	39.00
428.35	43.00
428.70	45.00
429.06	46.00
429.42	43.00
429.77	44.00
430.13	47.00
430.49	37.00
430.84	40.00
431.20	44.00
431.55	45.00
431.91	39.00
432.27	51.00
432.62	44.00
432.98	39.00
433.34	50.00
433.69	53.00
434.05	44.00
434.40	45.00
434.76	44.00
435.12	44.00
435.47	43.00
435.83	48.00
436.18	51.00
436.54	46.00
436.90	45.00
437.25	49.00
437.61	49.00
437.96	56.00
438.32	47.00
438.67	50.00
439.03	58.00
439.39	50.00
439.74	56.00
440.10	55.00
440.45	52.00
440.81	50.00
441.16	48.00
441.52	54.00
441.87	62.00
442.23	59.00
442.59	53.00
442.94	56.00
443.30	58.00
443.65	51.00
444.01	52.00
444.36	56.00
444.72	61.00
445.07	53.00
445.43	53.00
445.78	56.00
446.14	57.00
446.49	52.00
446.85	56.00
447.20	58.00
447.56	64.00
447.91	60.00
448.27	56.00
448.62	59.00
448.98	57.00
449.33	55.00
449.69	48.00
450.04	53.00
450.39	54.00
450.75	56.00
451.10	56.00
451.46	54.00
451.81	53.00
452.17	49.00
452.52	57.00
452.88	53.00
453.23	56.00
453.58	57.00
453.94	51.00
454.29	58.00
454.65	55.00
455.00	54.00
455.36	62.00
455.71	51.00
456.06	58.00
456.42	65.00
456.77	56.00
457.13	52.00
457.48	51.00
457.83	54.00
458.19	51.00
458.54	59.00
458.90	55.00
459.25	51.00
459.60	55.00
459.96	51.00
460.31	46.00
460.66	56.00
461.02	47.00
461.37	44.00
461.73	49.00
462.08	52.00
462.43	50.00
462.79	49.00
463.14	47.00
463.49	53.00
463.85	46.00
464.20	44.00
464.55	51.00
464.91	42.00
465.26	55.00
465.61	47.00
465.97	42.00
466.32	43.00
466.67	45.00
467.03	41.00
467.38	43.00
467.73	49.00
468.08	42.00
468.44	49.00
468.79	50.00
469.14	44.00
469.50	39.00
469.85	40.00
470.20	50.00
470.55	44.00
470.91	48.00
471.26	42.00
471.61	40.00
471.97	50.00
472.32	40.00
472.67	44.00
473.02	38.00
473.38	49.00
473.73	50.00
474.08	42.00
474.43	37.00
474.78	35.00
475.14	39.00
475.49	42.00
475.84	46.00
476.19	42.00
476.55	53.00
476.90	45.00
477.25	38.00
477.60	36.00
477.95	42.00
478.31	46.00
478.66	42.00
479.01	45.00
479.36	53.00
479.71	49.00
480.07	41.00
480.42	46.00
480.77	42.00
481.12	43.00
481.47	47.00
481.82	51.00
482.18	51.00
482.53	43.00
482.88	45.00
483.23	51.00
483.58	44.00
483.93	40.00
484.29	37.00
484.64	43.00
484.99	38.00
485.34	41.00
485.69	45.00
486.04	40.00
486.39	44.00
486.74	39.00
487.10	47.00
487.45	42.00
487.80	41.00
488.15	47.00
488.50	49.00
488.85	47.00
489.20	47.00
489.55	52.00
489.90	49.00
490.26	52.00
490.61	39.00
490.96	49.00
491.31	48.00
491.66	44.00
492.01	51.00
492.36	47.00
492.71	56.00
493.06	51.00
493.41	54.00
493.76	52.00
494.11	53.00
494.46	62.00
494.81	44.00
495.16	53.00
495.51	57.00
495.86	58.00
496.21	66.00
496.56	56.00
496.91	64.00
497.27	59.00
497.62	64.00
497.97	55.00
498.32	59.00
498.67	70.00
499.02	69.00
499.37	70.00
499.72	68.00
500.07	77.00
500.42	77.00
500.77	71.00
501.11	82.00
501.46	68.00
501.81	78.00
502.16	82.00
502.51	82.00
502.86	82.00
503.21	80.00
503.56	79.00
503.91	89.00
504.26	92.00
504.61	93.00
504.96	102.00
505.31	93.00
505.66	93.00
506.01	88.00
506.36	93.00
506.71	103.00
507.06	96.00
507.41	97.00
507.75	108.00
508.10	99.00
508.45	96.00
508.80	101.00
509.15	108.00
509.50	98.00
509.85	118.00
510.20	103.00
510.55	105.00
510.90	125.00
511.24	122.00
511.59	116.00
511.94	125.00
512.29	120.00
512.64	126.00
512.99	126.00
513.34	129.00
513.68	133.00
514.03	126.00
514.38	137.00
514.73	136.00
515.08	141.00
515.43	160.00
515.77	145.00
516.12	162.00
516.47	152.00
516.82	153.00
517.17	162.00
517.52	151.00
517.86	157.00
518.21	159.00
518.56	156.00
518.91	166.00
519.26	181.00
519.60	157.00
519.95	173.00
520.30	170.00
520.65	173.00
521.00	178.00
521.34	189.00
521.69	178.00
522.04	181.00
522.39	171.00
522.73	180.00
523.08	193.00
523.43	197.00
523.78	192.00
524.12	203.00
524.47	202.00
524.82	201.00
525.17	206.00
525.51	205.00
525.86	213.00
526.21	209.00
526.56	208.00
526.90	215.00
527.25	222.00
527.60	219.00
527.94	226.00
528.29	221.00
528.64	219.00
528.99	225.00
529.33	226.00
529.68	227.00
530.03	232.00
530.37	238.00
530.72	243.00
531.07	238.00
531.41	264.00
531.76	239.00
532.11	252.00
532.45	244.00
532.80	248.00
533.15	256.00
533.49	249.00
533.84	261.00
534.19	260.00
534.53	262.00
534.88	273.00
535.23	261.00
535.57	264.00
535.92	276.00
536.26	268.00
536.61	277.00
536.96	282.00
537.30	275.00
537.65	284.00
537.99	280.00
538.34	269.00
538.69	290.00
539.03	285.00
539.38	294.00
539.72	288.00
540.07	301.00
540.42	303.00
540.76	296.00
541.11	298.00
541.45	308.00
541.80	299.00
542.14	309.00
542.49	308.00
542.84	316.00
543.18	313.00
543.53	317.00
543.87	311.00
544.22	318.00
544.56	321.00
544.91	319.00
545.25	332.00
545.60	332.00
545.94	329.00
546.29	323.00
546.63	339.00
546.98	338.00
547.32	340.00
547.67	333.00
548.01	335.00
548.36	342.00
548.70	347.00
549.05	353.00
549.39	358.00
549.74	358.00
550.08	357.00
550.43	358.00
550.77	351.00
551.12	363.00
551.46	376.00
551.81	354.00
552.15	369.00
552.50	369.00
552.84	374.00
553.18	370.00
553.53	383.00
553.87	385.00
554.22	365.00
554.56	387.00
554.91	383.00
555.25	381.00
555.59	381.00
555.94	377.00
556.28	406.00
556.63	389.00
556.97	387.00
557.32	397.00
557.66	405.00
558.00	400.00
558.35	383.00
558.69	408.00
559.03	407.00
559.38	405.00
559.72	404.00
560.07	399.00
560.41	416.00
560.75	413.00
561.10	422.00
561.44	412.00
561.78	425.00
562.13	419.00
562.47	429.00
562.81	421.00
563.16	431.00
563.50	414.00
563.84	437.00
564.19	429.00
564.53	417.00
564.87	429.00
565.22	438.00
565.56	436.00
565.90	450.00
566.25	430.00
566.59	440.00
566.93	444.00
567.28	436.00
567.62	444.00
567.96	445.00
568.30	438.00
568.65	442.00
568.99	451.00
569.33	448.00
569.68	445.00
570.02	449.00
570.36	465.00
570.70	455.00
571.05	447.00
571.39	461.00
571.73	461.00
572.07	456.00
572.42	455.00
572.76	479.00
573.10	462.00
573.44	456.00
573.78	471.00
574.13	460.00
574.47	472.00
574.81	465.00
575.15	483.00
575.49	462.00
575.84	470.00
576.18	477.00
576.52	479.00
576.86	468.00
577.20	470.00
577.55	470.00
577.89	475.00
578.23	458.00
578.57	465.00
578.91	465.00
579.25	463.00
579.60	444.00
579.94	448.00
580.28	461.00
580.62	457.00
580.96	475.00
581.30	465.00
581.65	474.00
581.99	475.00
582.33	474.00
582.67	478.00
583.01	488.00
583.35	484.00
583.69	485.00
584.03	511.00
584.37	494.00
584.72	492.00
585.06	506.00
585.40	498.00
585.74	499.00
586.08	492.00
586.42	502.00
586.76	503.00
587.10	490.00
587.44	497.00
587.78	493.00
588.12	509.00
588.46	511.00
588.80	506.00
589.15	495.00
589.49	514.00
589.83	499.00
590.17	506.00
590.51	507.00
590.85	503.00
591.19	513.00
591.53	511.00
591.87	526.00
592.21	506.00
592.55	513.00
592.89	506.00
593.23	498.00
593.57	504.00
593.91	506.00
594.25	507.00
594.59	506.00
594.93	494.00
595.27	492.00
595.61	507.00
595.95	505.00
596.29	499.00
596.63	522.00
596.97	506.00
597.31	504.00
597.65	493.00
597.99	523.00
598.32	520.00
598.66	511.00
599.00	511.00
599.34	501.00
599.68	510.00
600.02	529.00
600.36	531.00
600.70	504.00
601.04	502.00
601.38	500.00
601.72	518.00
602.06	508.00
602.40	520.00
602.73	522.00
603.07	509.00
603.41	519.00
603.75	518.00
604.09	522.00
604.43	525.00
604.77	522.00
605.11	525.00
605.45	516.00
605.78	529.00
606.12	527.00
606.46	512.00
606.80	519.00
607.14	514.00
607.48	522.00
607.81	515.00
608.15	522.00
608.49	516.00
608.83	513.00
609.17	527.00
609.51	503.00
609.84	521.00
610.18	514.00
610.52	518.00
610.86	515.00
611.20	526.00
611.53	515.00
611.87	518.00
612.21	528.00
612.55	529.00
612.89	528.00
613.22	517.00
613.56	515.00
613.90	525.00
614.24	521.00
614.57	507.00
614.91	515.00
615.25	520.00
615.59	520.00
615.92	521.00
616.26	527.00
616.60	530.00
616.94	532.00
617.27	527.00
617.61	508.00
617.95	514.00
618.29	502.00
618.62	534.00
618.96	518.00
619.30	516.00
619.63	531.00
619.97	498.00
620.31	517.00
620.64	519.00
620.98	518.00
621.32	529.00
621.66	512.00
621.99	527.00
622.33	533.00
622.67	529.00
623.00	516.00
623.34	519.00
623.68	508.00
624.01	526.00
624.35	518.00
624.68	512.00
625.02	511.00
625.36	507.00
625.69	510.00
626.03	521.00
626.37	523.00
626.70	507.00
627.04	509.00
627.37	514.00
627.71	502.00
628.05	522.00
628.38	516.00
628.72	498.00
629.05	499.00
629.39	487.00
629.73	511.00
630.06	523.00
630.40	506.00
630.73	514.00
631.07	506.00
631.41	502.00
631.74	512.00
632.08	503.00
632.41	505.00
632.75	508.00
633.08	496.00
633.42	504.00
633.75	498.00
634.09	487.00
634.42	495.00
634.76	499.00
635.09	504.00
635.43	504.00
635.76	489.00
636.10	502.00
636.43	503.00
636.77	502.00
637.10	500.00
637.44	499.00
637.77	494.00
638.11	487.00
638.44	488.00
638.78	488.00
639.11	465.00
639.45	481.00
639.78	481.00
640.12	472.00
640.45	484.00
640.79	496.00
641.12	485.00
641.46	482.00
641.79	494.00
642.12	484.00
642.46	492.00
642.79	481.00
643.13	468.00
643.46	478.00
643.80	472.00
644.13	464.00
644.46	467.00
644.80	460.00
645.13	471.00
645.47	467.00
645.80	474.00
646.13	466.00
646.47	469.00
646.80	458.00
647.13	456.00
647.47	466.00
647.80	455.00
648.14	469.00
648.47	456.00
648.80	454.00
649.14	465.00
649.47	453.00
649.80	452.00
650.14	450.00
650.47	447.00
650.80	444.00
651.14	450.00
651.47	458.00
651.80	451.00
652.14	444.00
652.47	424.00
652.80	436.00
653.14	450.00
653.47	433.00
653.80	439.00
654.13	431.00
654.47	440.00
654.80	438.00
655.13	437.00
655.47	429.00
655.80	426.00
656.13	435.00
656.46	434.00
656.80	432.00
657.13	435.00
657.46	426.00
657.79	430.00
658.13	434.00
658.46	429.00
658.79	427.00
659.12	420.00
659.45	421.00
659.79	414.00
660.12	414.00
660.45	405.00
660.78	417.00
661.12	395.00
661.45	414.00
661.78	405.00
662.11	405.00
662.44	408.00
662.77	415.00
663.11	411.00
663.44	381.00
663.77	386.00
664.10	396.00
664.43	404.00
664.77	391.00
665.10	395.00
665.43	386.00
665.76	390.00
666.09	388.00
666.42	387.00
666.75	378.00
667.08	389.00
667.42	375.00
667.75	384.00
668.08	382.00
668.41	378.00
668.74	379.00
669.07	379.00
669.40	379.00
669.73	377.00
670.06	386.00
670.40	362.00
670.73	366.00
671.06	365.00
671.39	383.00
671.72	370.00
672.05	370.00
672.38	356.00
672.71	362.00
673.04	360.00
673.37	365.00
673.70	361.00
674.03	371.00
674.36	361.00
674.69	373.00
675.02	359.00
675.35	358.00
675.68	360.00
676.01	362.00
676.34	351.00
676.67	350.00
677.00	359.00
677.33	355.00
677.66	355.00
677.99	345.00
678.32	336.00
678.65	336.00
678.98	340.00
679.31	338.00
679.64	333.00
679.97	333.00
680.30	336.00
680.63	343.00
680.96	345.00
681.29	335.00
681.62	336.00
681.95	330.00
682.28	324.00
682.61	326.00
682.94	322.00
683.27	328.00
683.60	305.00
683.93	310.00
684.25	314.00
684.58	316.00
684.91	320.00
685.24	322.00
685.57	313.00
685.90	313.00
686.23	303.00
686.56	321.00
686.89	299.00
687.21	306.00
687.54	309.00
687.87	313.00
688.20	305.00
688.53	307.00
688.86	305.00
689.19	302.00
689.51	306.00
689.84	295.00
690.17	293.00
690.50	307.00
690.83	298.00
691.16	291.00
691.48	289.00
691.81	300.00
692.14	278.00
692.47	290.00
692.80	275.00
693.12	284.00
693.45	283.00
693.78	286.00
694.11	286.00
694.44	275.00
694.76	280.00
695.09	274.00
695.42	271.00
695.75	274.00
696.07	276.00
696.40	265.00
696.73	262.00
697.06	262.00
697.38	265.00
697.71	255.00
698.04	265.00
698.37	256.00
698.69	265.00
699.02	261.00
699.35	250.00
699.67	246.00
700.00	254.00
700.33	251.00
700.66	252.00
700.98	258.00
701.31	241.00
701.64	249.00
701.96	243.00
702.29	251.00
702.62	250.00
702.94	243.00
703.27	248.00
703.60	235.00
703.92	234.00
704.25	242.00
704.58	232.00
704.90	230.00
705.23	225.00
705.56	236.00
705.88	221.00
706.21	230.00
706.53	234.00
706.86	225.00
707.19	215.00
707.51	223.00
707.84	217.00
708.16	219.00
708.49	221.00
708.82	209.00
709.14	215.00
709.47	214.00
709.79	208.00
710.12	207.00
710.45	200.00
710.77	217.00
711.10	210.00
711.42	201.00
711.75	205.00
712.07	212.00
712.40	200.00
712.72	194.00
713.05	195.00
713.37	206.00
713.70	189.00
714.03	198.00
714.35	188.00
714.68	184.00
715.00	189.00
715.33	185.00
715.65	171.00
715.98	180.00
716.30	179.00
716.63	179.00
716.95	173.00
717.28	172.00
717.60	169.00
717.92	166.00
718.25	167.00
718.57	167.00
718.90	164.00
719.22	158.00
719.55	162.00
719.87	168.00
720.20	166.00
720.52	163.00
720.84	154.00
721.17	159.00
721.49	162.00
721.82	150.00
722.14	149.00
722.47	159.00
722.79	140.00
723.11	144.00
723.44	142.00
723.76	149.00
724.09	153.00
724.41	134.00
724.73	135.00
725.06	140.00
725.38	144.00
725.70	133.00
726.03	137.00
726.35	139.00
726.67	139.00
727.00	142.00
727.32	146.00
727.65	128.00
727.97	133.00
728.29	125.00
728.61	131.00
728.94	126.00
729.26	139.00
729.58	123.00
729.91	121.00
730.23	125.00
730.55	122.00
730.88	129.00
731.20	127.00
731.52	127.00
731.84	119.00
732.17	126.00
732.49	109.00
732.81	134.00
733.14	123.00
733.46	112.00
733.78	116.00
734.10	116.00
734.43	124.00
734.75	108.00
735.07	115.00
735.39	115.00
735.72	112.00
736.04	109.00
736.36	120.00
736.68	108.00
737.00	114.00
737.33	114.00
737.65	107.00
737.97	111.00
738.29	114.00
738.61	105.00
738.94	107.00
739.26	108.00
739.58	107.00
739.90	100.00
740.22	109.00
740.54	100.00
740.87	101.00
741.19	100.00
741.51	105.00
741.83	107.00
742.15	108.00
742.47	100.00
742.79	106.00
743.12	99.00
743.44	102.00
743.76	101.00
744.08	95.00
744.40	91.00
744.72	90.00
745.04	96.00
745.36	94.00
745.68	101.00
746.00	96.00
746.33	97.00
746.65	91.00
746.97	94.00
747.29	95.00
747.61	92.00
747.93	89.00
748.25	96.00
748.57	94.00
748.89	86.00
749.21	87.00
749.53	81.00
749.85	90.00
750.17	86.00
750.49	78.00
750.81	87.00
751.13	95.00
751.45	88.00
751.77	90.00
752.09	85.00
752.41	88.00
752.73	86.00
753.05	82.00
753.37	84.00
753.69	88.00
754.01	89.00
754.33	83.00
754.65	90.00
754.97	96.00
755.29	86.00
755.61	87.00
755.93	81.00
756.25	83.00
756.57	82.00
756.89	83.00
757.21	87.00
757.53	80.00
757.84	82.00
758.16	84.00
758.48	74.00
758.80	86.00
759.12	84.00
759.44	87.00
759.76	87.00
760.08	74.00
760.40	91.00
760.71	80.00
761.03	81.00
761.35	78.00
761.67	85.00
761.99	89.00
762.31	87.00
762.63	88.00
762.94	84.00
763.26	85.00
763.58	83.00
763.90	81.00
764.22	92.00
764.54	86.00
764.85	88.00
765.17	74.00
765.49	80.00
765.81	82.00
766.13	86.00
766.44	81.00
766.76	81.00
767.08	90.00
767.40	81.00
767.72	78.00
768.03	87.00
768.35	80.00
768.67	89.00
768.99	80.00
769.30	81.00
769.62	91.00
769.94	84.00
770.26	87.00
770.57	77.00
770.89	87.00
771.21	84.00
771.53	98.00
771.84	85.00
772.16	86.00
772.48	92.00
772.79	90.00
773.11	90.00
773.43	89.00
773.75	87.00
774.06	90.00
774.38	94.00
774.70	83.00
775.01	92.00
775.33	90.00
775.65	93.00
775.96	86.00
776.28	90.00
776.59	88.00
776.91	89.00
777.23	95.00
777.54	90.00
777.86	93.00
778.18	94.00
778.49	90.00
778.81	87.00
779.13	92.00
779.44	93.00
779.76	89.00
780.07	85.00
780.39	89.00
780.71	90.00
781.02	102.00
781.34	96.00
781.65	97.00
781.97	98.00
782.28	97.00
782.60	106.00
782.91	89.00
783.23	104.00
783.55	101.00
783.86	100.00
784.18	101.00
784.49	99.00
784.81	98.00
785.12	105.00
785.44	90.00
785.75	101.00
786.07	105.00
786.38	101.00
786.70	99.00
787.01	103.00
787.33	102.00
787.64	99.00
787.96	109.00
788.27	101.00
788.59	110.00
788.90	112.00
789.22	110.00
789.53	107.00
789.85	106.00
790.16	116.00
790.47	112.00
790.79	106.00
791.10	116.00
791.42	124.00
791.73	112.00
792.05	112.00
792.36	115.00
792.67	116.00
792.99	114.00
793.30	124.00
793.62	110.00
793.93	118.00
794.24	120.00
794.56	117.00
794.87	121.00
795.18	118.00
795.50	122.00
