SpectraSuite Data File
++++++++++++++++++++++++++++++++++++
Date: Fri Jul 12 13:47:33 ART 2024
User: Javier
Dark Spectrum Present: Yes
Reference Spectrum Present: No
Number of Sampled Component Spectra: 1
Spectrometers: ADUD7991
Integration Time (usec): 30000 (ADUD7991)
Spectra Averaged: 1 (ADUD7991)
Boxcar Smoothing: 0 (ADUD7991)
Correct for Electrical Dark: No (ADUD7991)
Strobe/Lamp Enabled: No (ADUD7991)
Correct for Detector Non-linearity: No (ADUD7991)
Correct for Stray Light: No (ADUD7991)
Number of Pixels in Processed Spectrum: 2048
>>>>>Begin Processed Spectral Data<<<<<
338.97	0.00
339.33	1.00
339.70	-7.00
340.06	-4.00
340.42	-3.00
340.79	-9.00
341.15	-9.00
341.52	-15.00
341.88	-1.00
342.24	-4.00
342.61	0.00
342.97	-4.00
343.33	-5.00
343.70	-8.00
344.06	-3.00
344.43	-3.00
344.79	2.00
345.15	-2.00
345.52	-6.00
345.88	-9.00
346.24	-9.00
346.61	-9.00
346.97	-4.00
347.33	-11.00
347.70	-5.00
348.06	-8.00
348.42	-2.00
348.79	-11.00
349.15	2.00
349.51	-3.00
349.88	-4.00
350.24	2.00
350.60	-8.00
350.97	-4.00
351.33	-12.00
351.69	7.00
352.05	-1.00
352.42	-9.00
352.78	-2.00
353.14	1.00
353.51	-3.00
353.87	-2.00
354.23	-8.00
354.60	-5.00
354.96	-3.00
355.32	-3.00
355.68	-6.00
356.05	-6.00
356.41	2.00
356.77	-7.00
357.13	-9.00
357.50	-1.00
357.86	-8.00
358.22	-10.00
358.58	-3.00
358.95	0.00
359.31	-5.00
359.67	1.00
360.03	-3.00
360.40	-13.00
360.76	-11.00
361.12	-2.00
361.48	0.00
361.85	3.00
362.21	-1.00
362.57	-8.00
362.93	-6.00
363.29	-3.00
363.66	-1.00
364.02	1.00
364.38	-1.00
364.74	0.00
365.10	0.00
365.47	-4.00
365.83	-5.00
366.19	-4.00
366.55	-6.00
366.91	-7.00
367.28	-5.00
367.64	-5.00
368.00	-3.00
368.36	-5.00
368.72	-5.00
369.08	-5.00
369.45	-11.00
369.81	-5.00
370.17	-6.00
370.53	-10.00
370.89	-2.00
371.25	-7.00
371.62	1.00
371.98	-1.00
372.34	2.00
372.70	3.00
373.06	-9.00
373.42	1.00
373.78	-8.00
374.14	-2.00
374.51	-4.00
374.87	-2.00
375.23	-6.00
375.59	-4.00
375.95	-5.00
376.31	-9.00
376.67	-4.00
377.03	-8.00
377.39	-4.00
377.76	-4.00
378.12	-5.00
378.48	-6.00
378.84	-3.00
379.20	-8.00
379.56	-8.00
379.92	-2.00
380.28	-3.00
380.64	-6.00
381.00	-5.00
381.36	-5.00
381.72	-5.00
382.08	-10.00
382.45	2.00
382.81	2.00
383.17	-8.00
383.53	-4.00
383.89	2.00
384.25	-4.00
384.61	-1.00
384.97	-2.00
385.33	3.00
385.69	-3.00
386.05	-6.00
386.41	2.00
386.77	-1.00
387.13	-2.00
387.49	3.00
387.85	0.00
388.21	-1.00
388.57	-6.00
388.93	-4.00
389.29	-3.00
389.65	-8.00
390.01	-5.00
390.37	-4.00
390.73	-6.00
391.09	-7.00
391.45	-4.00
391.81	-13.00
392.17	-13.00
392.53	-3.00
392.89	-6.00
393.25	-10.00
393.61	0.00
393.97	-3.00
394.33	0.00
394.69	1.00
395.05	-1.00
395.41	4.00
395.77	-2.00
396.12	0.00
396.48	-1.00
396.84	5.00
397.20	-4.00
397.56	-3.00
397.92	-1.00
398.28	1.00
398.64	5.00
399.00	4.00
399.36	0.00
399.72	3.00
400.08	2.00
400.44	6.00
400.79	4.00
401.15	5.00
401.51	2.00
401.87	1.00
402.23	6.00
402.59	9.00
402.95	5.00
403.31	2.00
403.67	1.00
404.02	6.00
404.38	4.00
404.74	1.00
405.10	4.00
405.46	8.00
405.82	6.00
406.18	5.00
406.53	8.00
406.89	14.00
407.25	-2.00
407.61	21.00
407.97	9.00
408.33	12.00
408.69	7.00
409.04	6.00
409.40	10.00
409.76	11.00
410.12	11.00
410.48	5.00
410.83	8.00
411.19	10.00
411.55	21.00
411.91	7.00
412.27	10.00
412.63	17.00
412.98	19.00
413.34	24.00
413.70	12.00
414.06	15.00
414.41	13.00
414.77	14.00
415.13	16.00
415.49	12.00
415.85	19.00
416.20	15.00
416.56	15.00
416.92	18.00
417.28	25.00
417.63	23.00
417.99	12.00
418.35	16.00
418.71	22.00
419.06	32.00
419.42	28.00
419.78	25.00
420.14	33.00
420.49	21.00
420.85	21.00
421.21	27.00
421.57	23.00
421.92	29.00
422.28	21.00
422.64	26.00
422.99	33.00
423.35	37.00
423.71	27.00
424.06	29.00
424.42	36.00
424.78	39.00
425.14	26.00
425.49	27.00
425.85	34.00
426.21	34.00
426.56	26.00
426.92	40.00
427.28	37.00
427.63	38.00
427.99	42.00
428.35	34.00
428.70	34.00
429.06	30.00
429.42	40.00
429.77	33.00
430.13	32.00
430.49	37.00
430.84	46.00
431.20	36.00
431.55	38.00
431.91	37.00
432.27	39.00
432.62	38.00
432.98	47.00
433.34	44.00
433.69	45.00
434.05	38.00
434.40	36.00
434.76	48.00
435.12	41.00
435.47	41.00
435.83	41.00
436.18	49.00
436.54	45.00
436.90	38.00
437.25	44.00
437.61	54.00
437.96	41.00
438.32	50.00
438.67	53.00
439.03	45.00
439.39	50.00
439.74	46.00
440.10	50.00
440.45	48.00
440.81	47.00
441.16	51.00
441.52	57.00
441.87	52.00
442.23	55.00
442.59	52.00
442.94	57.00
443.30	51.00
443.65	45.00
444.01	52.00
444.36	47.00
444.72	56.00
445.07	46.00
445.43	59.00
445.78	58.00
446.14	59.00
446.49	56.00
446.85	53.00
447.20	54.00
447.56	55.00
447.91	52.00
448.27	53.00
448.62	55.00
448.98	55.00
449.33	59.00
449.69	55.00
450.04	56.00
450.39	58.00
450.75	58.00
451.10	59.00
451.46	52.00
451.81	56.00
452.17	60.00
452.52	54.00
452.88	61.00
453.23	60.00
453.58	61.00
453.94	58.00
454.29	52.00
454.65	61.00
455.00	62.00
455.36	55.00
455.71	55.00
456.06	60.00
456.42	61.00
456.77	61.00
457.13	66.00
457.48	62.00
457.83	69.00
458.19	58.00
458.54	59.00
458.90	56.00
459.25	66.00
459.60	63.00
459.96	71.00
460.31	71.00
460.66	56.00
461.02	51.00
461.37	55.00
461.73	56.00
462.08	59.00
462.43	70.00
462.79	62.00
463.14	60.00
463.49	64.00
463.85	59.00
464.20	65.00
464.55	65.00
464.91	64.00
465.26	67.00
465.61	57.00
465.97	60.00
466.32	67.00
466.67	75.00
467.03	61.00
467.38	78.00
467.73	63.00
468.08	67.00
468.44	68.00
468.79	67.00
469.14	64.00
469.50	75.00
469.85	71.00
470.20	67.00
470.55	74.00
470.91	62.00
471.26	64.00
471.61	66.00
471.97	68.00
472.32	75.00
472.67	73.00
473.02	81.00
473.38	67.00
473.73	71.00
474.08	70.00
474.43	71.00
474.78	82.00
475.14	78.00
475.49	80.00
475.84	81.00
476.19	73.00
476.55	74.00
476.90	71.00
477.25	75.00
477.60	78.00
477.95	70.00
478.31	81.00
478.66	74.00
479.01	79.00
479.36	78.00
479.71	78.00
480.07	87.00
480.42	84.00
480.77	78.00
481.12	90.00
481.47	93.00
481.82	81.00
482.18	84.00
482.53	86.00
482.88	86.00
483.23	79.00
483.58	84.00
483.93	92.00
484.29	91.00
484.64	91.00
484.99	89.00
485.34	84.00
485.69	95.00
486.04	105.00
486.39	92.00
486.74	87.00
487.10	89.00
487.45	92.00
487.80	100.00
488.15	91.00
488.50	96.00
488.85	88.00
489.20	89.00
489.55	99.00
489.90	85.00
490.26	102.00
490.61	103.00
490.96	104.00
491.31	96.00
491.66	106.00
492.01	90.00
492.36	103.00
492.71	106.00
493.06	106.00
493.41	101.00
493.76	110.00
494.11	107.00
494.46	99.00
494.81	109.00
495.16	103.00
495.51	97.00
495.86	105.00
496.21	107.00
496.56	113.00
496.91	104.00
497.27	113.00
497.62	112.00
497.97	112.00
498.32	111.00
498.67	105.00
499.02	117.00
499.37	120.00
499.72	123.00
500.07	123.00
500.42	117.00
500.77	118.00
501.11	112.00
501.46	119.00
501.81	123.00
502.16	122.00
502.51	128.00
502.86	123.00
503.21	126.00
503.56	119.00
503.91	128.00
504.26	121.00
504.61	122.00
504.96	117.00
505.31	125.00
505.66	125.00
506.01	130.00
506.36	121.00
506.71	131.00
507.06	129.00
507.41	141.00
507.75	135.00
508.10	128.00
508.45	130.00
508.80	138.00
509.15	135.00
509.50	139.00
509.85	138.00
510.20	141.00
510.55	148.00
510.90	142.00
511.24	140.00
511.59	141.00
511.94	148.00
512.29	151.00
512.64	151.00
512.99	146.00
513.34	159.00
513.68	141.00
514.03	154.00
514.38	152.00
514.73	162.00
515.08	154.00
515.43	160.00
515.77	169.00
516.12	163.00
516.47	159.00
516.82	152.00
517.17	168.00
517.52	165.00
517.86	172.00
518.21	164.00
518.56	164.00
518.91	166.00
519.26	176.00
519.60	171.00
519.95	176.00
520.30	181.00
520.65	176.00
521.00	178.00
521.34	171.00
521.69	179.00
522.04	187.00
522.39	183.00
522.73	178.00
523.08	193.00
523.43	192.00
523.78	181.00
524.12	192.00
524.47	188.00
524.82	195.00
525.17	190.00
525.51	200.00
525.86	188.00
526.21	207.00
526.56	198.00
526.90	195.00
527.25	209.00
527.60	192.00
527.94	202.00
528.29	189.00
528.64	209.00
528.99	199.00
529.33	214.00
529.68	208.00
530.03	215.00
530.37	217.00
530.72	201.00
531.07	209.00
531.41	218.00
531.76	210.00
532.11	218.00
532.45	225.00
532.80	219.00
533.15	220.00
533.49	226.00
533.84	233.00
534.19	226.00
534.53	219.00
534.88	229.00
535.23	228.00
535.57	242.00
535.92	229.00
536.26	238.00
536.61	232.00
536.96	245.00
537.30	238.00
537.65	242.00
537.99	245.00
538.34	236.00
538.69	251.00
539.03	250.00
539.38	245.00
539.72	243.00
540.07	253.00
540.42	248.00
540.76	255.00
541.11	262.00
541.45	247.00
541.80	228.00
542.14	245.00
542.49	266.00
542.84	273.00
543.18	272.00
543.53	275.00
543.87	271.00
544.22	261.00
544.56	268.00
544.91	283.00
545.25	282.00
545.60	274.00
545.94	271.00
546.29	266.00
546.63	278.00
546.98	282.00
547.32	279.00
547.67	284.00
548.01	288.00
548.36	277.00
548.70	285.00
549.05	283.00
549.39	290.00
549.74	288.00
550.08	290.00
550.43	302.00
550.77	295.00
551.12	296.00
551.46	301.00
551.81	298.00
552.15	301.00
552.50	315.00
552.84	308.00
553.18	303.00
553.53	318.00
553.87	315.00
554.22	306.00
554.56	294.00
554.91	315.00
555.25	296.00
555.59	308.00
555.94	315.00
556.28	318.00
556.63	316.00
556.97	322.00
557.32	320.00
557.66	330.00
558.00	320.00
558.35	318.00
558.69	324.00
559.03	323.00
559.38	329.00
559.72	318.00
560.07	326.00
560.41	326.00
560.75	325.00
561.10	322.00
561.44	336.00
561.78	339.00
562.13	342.00
562.47	336.00
562.81	342.00
563.16	323.00
563.50	324.00
563.84	351.00
564.19	343.00
564.53	349.00
564.87	338.00
565.22	342.00
565.56	347.00
565.90	341.00
566.25	340.00
566.59	356.00
566.93	356.00
567.28	366.00
567.62	354.00
567.96	360.00
568.30	357.00
568.65	355.00
568.99	364.00
569.33	364.00
569.68	371.00
570.02	368.00
570.36	368.00
570.70	370.00
571.05	357.00
571.39	372.00
571.73	373.00
572.07	375.00
572.42	366.00
572.76	371.00
573.10	386.00
573.44	365.00
573.78	388.00
574.13	363.00
574.47	385.00
574.81	380.00
575.15	373.00
575.49	384.00
575.84	374.00
576.18	369.00
576.52	372.00
576.86	380.00
577.20	357.00
577.55	389.00
577.89	363.00
578.23	361.00
578.57	378.00
578.91	365.00
579.25	378.00
579.60	347.00
579.94	383.00
580.28	369.00
580.62	371.00
580.96	364.00
581.30	372.00
581.65	381.00
581.99	388.00
582.33	387.00
582.67	382.00
583.01	389.00
583.35	388.00
583.69	403.00
584.03	396.00
584.37	404.00
584.72	399.00
585.06	401.00
585.40	408.00
585.74	400.00
586.08	397.00
586.42	398.00
586.76	390.00
587.10	402.00
587.44	405.00
587.78	401.00
588.12	390.00
588.46	394.00
588.80	401.00
589.15	405.00
589.49	421.00
589.83	406.00
590.17	409.00
590.51	405.00
590.85	419.00
591.19	410.00
591.53	422.00
591.87	411.00
592.21	400.00
592.55	415.00
592.89	409.00
593.23	411.00
593.57	399.00
593.91	399.00
594.25	400.00
594.59	411.00
594.93	420.00
595.27	401.00
595.61	413.00
595.95	404.00
596.29	403.00
596.63	414.00
596.97	407.00
597.31	406.00
597.65	405.00
597.99	415.00
598.32	407.00
598.66	410.00
599.00	406.00
599.34	414.00
599.68	402.00
600.02	413.00
600.36	414.00
600.70	410.00
601.04	413.00
601.38	420.00
601.72	414.00
602.06	420.00
602.40	419.00
602.73	433.00
603.07	428.00
603.41	410.00
603.75	412.00
604.09	429.00
604.43	411.00
604.77	434.00
605.11	422.00
605.45	419.00
605.78	408.00
606.12	427.00
606.46	414.00
606.80	427.00
607.14	428.00
607.48	421.00
607.81	423.00
608.15	422.00
608.49	424.00
608.83	428.00
609.17	420.00
609.51	416.00
609.84	435.00
610.18	426.00
610.52	430.00
610.86	425.00
611.20	428.00
611.53	420.00
611.87	415.00
612.21	413.00
612.55	431.00
612.89	433.00
613.22	423.00
613.56	433.00
613.90	430.00
614.24	427.00
614.57	428.00
614.91	419.00
615.25	411.00
615.59	430.00
615.92	429.00
616.26	429.00
616.60	437.00
616.94	432.00
617.27	440.00
617.61	427.00
617.95	425.00
618.29	435.00
618.62	428.00
618.96	430.00
619.30	431.00
619.63	436.00
619.97	429.00
620.31	422.00
620.64	426.00
620.98	434.00
621.32	425.00
621.66	429.00
621.99	410.00
622.33	435.00
622.67	430.00
623.00	421.00
623.34	425.00
623.68	418.00
624.01	432.00
624.35	419.00
624.68	422.00
625.02	437.00
625.36	419.00
625.69	431.00
626.03	421.00
626.37	424.00
626.70	421.00
627.04	428.00
627.37	444.00
627.71	428.00
628.05	415.00
628.38	426.00
628.72	418.00
629.05	418.00
629.39	424.00
629.73	407.00
630.06	419.00
630.40	411.00
630.73	419.00
631.07	422.00
631.41	413.00
631.74	418.00
632.08	418.00
632.41	426.00
632.75	424.00
633.08	404.00
633.42	424.00
633.75	407.00
634.09	407.00
634.42	419.00
634.76	424.00
635.09	421.00
635.43	413.00
635.76	401.00
636.10	401.00
636.43	422.00
636.77	412.00
637.10	414.00
637.44	402.00
637.77	400.00
638.11	414.00
638.44	398.00
638.78	404.00
639.11	406.00
639.45	416.00
639.78	402.00
640.12	422.00
640.45	408.00
640.79	408.00
641.12	403.00
641.46	408.00
641.79	398.00
642.12	397.00
642.46	406.00
642.79	396.00
643.13	397.00
643.46	405.00
643.80	385.00
644.13	390.00
644.46	398.00
644.80	387.00
645.13	394.00
645.47	388.00
645.80	394.00
646.13	396.00
646.47	403.00
646.80	386.00
647.13	379.00
647.47	386.00
647.80	398.00
648.14	389.00
648.47	386.00
648.80	368.00
649.14	378.00
649.47	375.00
649.80	373.00
650.14	387.00
650.47	373.00
650.80	381.00
651.14	383.00
651.47	389.00
651.80	375.00
652.14	389.00
652.47	374.00
652.80	374.00
653.14	372.00
653.47	375.00
653.80	368.00
654.13	371.00
654.47	373.00
654.80	373.00
655.13	351.00
655.47	368.00
655.80	356.00
656.13	380.00
656.46	371.00
656.80	356.00
657.13	360.00
657.46	353.00
657.79	356.00
658.13	359.00
658.46	365.00
658.79	350.00
659.12	363.00
659.45	355.00
659.79	365.00
660.12	346.00
660.45	350.00
660.78	337.00
661.12	349.00
661.45	352.00
661.78	351.00
662.11	347.00
662.44	338.00
662.77	357.00
663.11	340.00
663.44	344.00
663.77	342.00
664.10	339.00
664.43	341.00
664.77	333.00
665.10	335.00
665.43	329.00
665.76	344.00
666.09	341.00
666.42	338.00
666.75	334.00
667.08	323.00
667.42	320.00
667.75	320.00
668.08	340.00
668.41	337.00
668.74	322.00
669.07	322.00
669.40	326.00
669.73	320.00
670.06	329.00
670.40	327.00
670.73	310.00
671.06	322.00
671.39	335.00
671.72	334.00
672.05	318.00
672.38	304.00
672.71	319.00
673.04	315.00
673.37	313.00
673.70	305.00
674.03	304.00
674.36	294.00
674.69	315.00
675.02	310.00
675.35	305.00
675.68	307.00
676.01	305.00
676.34	302.00
676.67	305.00
677.00	300.00
677.33	309.00
677.66	303.00
677.99	306.00
678.32	300.00
678.65	310.00
678.98	296.00
679.31	307.00
679.64	293.00
679.97	303.00
680.30	311.00
680.63	287.00
680.96	298.00
681.29	302.00
681.62	292.00
681.95	291.00
682.28	299.00
682.61	299.00
682.94	287.00
683.27	281.00
683.60	295.00
683.93	292.00
684.25	282.00
684.58	288.00
684.91	276.00
685.24	275.00
685.57	288.00
685.90	271.00
686.23	285.00
686.56	270.00
686.89	271.00
687.21	281.00
687.54	286.00
687.87	269.00
688.20	286.00
688.53	280.00
688.86	271.00
689.19	274.00
689.51	272.00
689.84	273.00
690.17	270.00
690.50	276.00
690.83	268.00
691.16	254.00
691.48	257.00
691.81	271.00
692.14	263.00
692.47	255.00
692.80	265.00
693.12	253.00
693.45	266.00
693.78	266.00
694.11	259.00
694.44	250.00
694.76	267.00
695.09	260.00
695.42	258.00
695.75	250.00
696.07	253.00
696.40	252.00
696.73	241.00
697.06	247.00
697.38	252.00
697.71	253.00
698.04	246.00
698.37	252.00
698.69	236.00
699.02	244.00
699.35	230.00
699.67	240.00
700.00	244.00
700.33	237.00
700.66	228.00
700.98	240.00
701.31	238.00
701.64	241.00
701.96	244.00
702.29	230.00
702.62	241.00
702.94	230.00
703.27	237.00
703.60	227.00
703.92	232.00
704.25	219.00
704.58	224.00
704.90	219.00
705.23	232.00
705.56	218.00
705.88	223.00
706.21	224.00
706.53	223.00
706.86	222.00
707.19	218.00
707.51	207.00
707.84	211.00
708.16	210.00
708.49	209.00
708.82	209.00
709.14	205.00
709.47	212.00
709.79	208.00
710.12	197.00
710.45	206.00
710.77	211.00
711.10	208.00
711.42	198.00
711.75	206.00
712.07	189.00
712.40	194.00
712.72	195.00
713.05	204.00
713.37	185.00
713.70	200.00
714.03	197.00
714.35	197.00
714.68	196.00
715.00	192.00
715.33	194.00
715.65	195.00
715.98	187.00
716.30	181.00
716.63	184.00
716.95	177.00
717.28	187.00
717.60	173.00
717.92	176.00
718.25	179.00
718.57	167.00
718.90	180.00
719.22	177.00
719.55	174.00
719.87	172.00
720.20	173.00
720.52	172.00
720.84	165.00
721.17	165.00
721.49	167.00
721.82	166.00
722.14	163.00
722.47	156.00
722.79	167.00
723.11	176.00
723.44	170.00
723.76	171.00
724.09	163.00
724.41	155.00
724.73	157.00
725.06	151.00
725.38	149.00
725.70	148.00
726.03	151.00
726.35	154.00
726.67	152.00
727.00	161.00
727.32	145.00
727.65	140.00
727.97	149.00
728.29	135.00
728.61	138.00
728.94	145.00
729.26	147.00
729.58	140.00
729.91	149.00
730.23	149.00
730.55	145.00
730.88	145.00
731.20	136.00
731.52	137.00
731.84	149.00
732.17	138.00
732.49	142.00
732.81	145.00
733.14	133.00
733.46	136.00
733.78	148.00
734.10	137.00
734.43	137.00
734.75	133.00
735.07	138.00
735.39	137.00
735.72	132.00
736.04	137.00
736.36	131.00
736.68	138.00
737.00	134.00
737.33	137.00
737.65	141.00
737.97	128.00
738.29	121.00
738.61	130.00
738.94	134.00
739.26	135.00
739.58	132.00
739.90	130.00
740.22	125.00
740.54	132.00
740.87	119.00
741.19	126.00
741.51	131.00
741.83	123.00
742.15	124.00
742.47	123.00
742.79	128.00
743.12	131.00
743.44	123.00
743.76	122.00
744.08	127.00
744.40	127.00
744.72	122.00
745.04	123.00
745.36	117.00
745.68	123.00
746.00	113.00
746.33	127.00
746.65	120.00
746.97	118.00
747.29	124.00
747.61	116.00
747.93	121.00
748.25	114.00
748.57	114.00
748.89	123.00
749.21	116.00
749.53	115.00
749.85	125.00
750.17	115.00
750.49	127.00
750.81	120.00
751.13	114.00
751.45	134.00
751.77	120.00
752.09	121.00
752.41	118.00
752.73	124.00
753.05	124.00
753.37	118.00
753.69	117.00
754.01	117.00
754.33	117.00
754.65	123.00
754.97	120.00
755.29	120.00
755.61	117.00
755.93	123.00
756.25	122.00
756.57	111.00
756.89	114.00
757.21	111.00
757.53	120.00
757.84	117.00
758.16	105.00
758.48	117.00
758.80	122.00
759.12	115.00
759.44	119.00
759.76	115.00
760.08	115.00
760.40	111.00
760.71	125.00
761.03	118.00
761.35	107.00
761.67	117.00
761.99	114.00
762.31	113.00
762.63	119.00
762.94	116.00
763.26	112.00
763.58	115.00
763.90	121.00
764.22	112.00
764.54	116.00
764.85	111.00
765.17	119.00
765.49	122.00
765.81	111.00
766.13	111.00
766.44	121.00
766.76	113.00
767.08	112.00
767.40	115.00
767.72	119.00
768.03	118.00
768.35	119.00
768.67	120.00
768.99	123.00
769.30	123.00
769.62	128.00
769.94	115.00
770.26	108.00
770.57	116.00
770.89	124.00
771.21	110.00
771.53	119.00
771.84	123.00
772.16	120.00
772.48	115.00
772.79	122.00
773.11	119.00
773.43	124.00
773.75	121.00
774.06	124.00
774.38	122.00
774.70	119.00
775.01	121.00
775.33	119.00
775.65	123.00
775.96	119.00
776.28	118.00
776.59	116.00
776.91	124.00
777.23	121.00
777.54	118.00
777.86	126.00
778.18	133.00
778.49	124.00
778.81	122.00
779.13	121.00
779.44	122.00
779.76	122.00
780.07	121.00
780.39	117.00
780.71	118.00
781.02	127.00
781.34	130.00
781.65	129.00
781.97	130.00
782.28	126.00
782.60	130.00
782.91	133.00
783.23	116.00
783.55	131.00
783.86	127.00
784.18	129.00
784.49	127.00
784.81	136.00
785.12	129.00
785.44	131.00
785.75	133.00
786.07	137.00
786.38	133.00
786.70	126.00
787.01	129.00
787.33	131.00
787.64	131.00
787.96	142.00
788.27	135.00
788.59	140.00
788.90	129.00
789.22	144.00
789.53	131.00
789.85	133.00
790.16	140.00
790.47	135.00
